%OpenBCI Raw EXG Data
%Number of channels = 16
%Sample Rate = 125 Hz
%Board = OpenBCI_GUI$BoardCytonSerialDaisy
Sample Index, EXG Channel 0, EXG Channel 1, EXG Channel 2, EXG Channel 3, EXG Channel 4, EXG Channel 5, EXG Channel 6, EXG Channel 7, EXG Channel 8, EXG Channel 9, EXG Channel 10, EXG Channel 11, EXG Channel 12, EXG Channel 13, EXG Channel 14, EXG Channel 15, Accel Channel 0, Accel Channel 1, Accel Channel 2, Other, Other, Other, Other, Other, Other, Other, Analog Channel 0, Analog Channel 1, Analog Channel 2, Timestamp, Other, Timestamp (Formatted)
0.0, -187500.02235174447, 24442.07959676738, -36024.82062874087, -35461.78018591168, 8706.429148486752, 4574.843296389973, -187500.02235174447, -101633.71731444805, 0.0, 0.0, 0.0, 0.0, 0.0, 0.0, 0.0, 0.0, 0.0, 0.0, 0.0, 192.0, 0.0, 0.0, 0.0, 0.0, 0.0, 0.0, 0.0, 0.0, 0.0, 1.695681161886033E9, 0.0, 2023-09-25 17:32:41.886
254.0, -187500.02235174447, 24432.535401884965, -36040.71271904859, -35479.68393322038, 8688.570104666962, 4579.201886558758, -187500.02235174447, -101657.1419426372, 2059.020347478431, -4772.030385974692, -21193.745278566515, -46056.708223427326, 21508.994282364165, -21618.562533684082, -26952.269906076184, -18605.055642730673, 0.116, 1.008, -0.04, 192.0, 1.5, 80.0, 15.5, 64.0, 127.0, 96.0, 0.0, 0.0, 0.0, 1.695681161886042E9, 0.0, 2023-09-25 17:32:41.886
0.0, -187500.02235174447, 24471.293326770465, -35992.008267880476, -35421.99408078123, 8695.610904170384, 4602.246535092179, -187500.02235174447, -101609.86800311423, 2129.473046001559, -4772.008034230236, -21173.651060301192, -46069.44871776685, 21598.244797974206, -21591.874550804445, -26875.02227723864, -18580.692241274388, 0.116, 1.008, -0.04, 192.0, 0.0, 0.0, 0.0, 0.0, 0.0, 0.0, 0.0, 0.0, 0.0, 1.695681161886046E9, 0.0, 2023-09-25 17:32:41.886
2.0, -187500.02235174447, 24435.26231470851, -36038.18697192514, -35469.24566855975, 8680.679938874238, 4579.76068017014, -187500.02235174447, -101649.27412858894, 2091.519783916448, -4750.192731641857, -21162.050504928888, -46025.795760845635, 21532.35185531996, -21576.36244015246, -26956.89671717843, -18584.737907020797, 0.116, 1.008, -0.04, 192.0, 0.0, 0.0, 0.0, 0.0, 0.0, 0.0, 0.0, 0.0, 0.0, 1.695681161886049E9, 0.0, 2023-09-25 17:32:41.886
4.0, -187500.02235174447, 24442.63839037876, -36034.23071315655, -35460.23791554426, 8701.824689128958, 4561.454601461244, -187500.02235174447, -101548.2665953954, 2123.3263162763496, -4803.725159612317, -21192.2030081991, -46090.36995057702, 21609.17480101285, -21611.47703069175, -26870.686038814314, -18577.071258672626, 0.116, 1.008, -0.04, 192.0, 0.0, 0.0, 0.0, 0.0, 0.0, 0.0, 0.0, 0.0, 0.0, 1.695681161886053E9, 0.0, 2023-09-25 17:32:41.886
6.0, -187500.02235174447, 24427.39450066024, -36036.667053302175, -35467.52458423669, 8667.827685812437, 4570.954092854749, -187500.02235174447, -101622.3849800092, 2062.954254502565, -4758.731098023784, -21197.567426868372, -46041.956072086825, 21513.889314399876, -21618.160202283885, -26936.310760535096, -18605.21210494186, 0.116, 1.008, -0.04, 192.0, 0.0, 0.0, 0.0, 0.0, 0.0, 0.0, 0.0, 0.0, 0.0, 1.695681161886056E9, 0.0, 2023-09-25 17:32:41.886
8.0, -187500.02235174447, 24448.40514044823, -36028.39690785371, -35461.08728183356, 8714.38636951284, 4564.628549173898, -187500.02235174447, -101510.7603681994, 2117.872490629255, -4804.351008457066, -21207.089270006334, -46096.02494192421, 21575.021335485144, -21616.03678656063, -26871.021314981142, -18586.973081466327, 0.116, 1.008, -0.04, 192.0, 1.5, 80.0, 15.5, 64.0, 127.0, 96.0, 0.0, 0.0, 0.0, 1.69568116188606E9, 0.0, 2023-09-25 17:32:41.886
10.0, -187500.02235174447, 24445.3205997134, -36009.50968378898, -35436.075679788075, 8652.76261004956, 4601.799500203073, -187500.02235174447, -101605.66587515663, 2081.282684955917, -4745.118885650502, -21189.990185498023, -46031.45075219283, 21518.292608057574, -21592.5451031381, -26926.6548069304, -18596.852552515575, 0.116, 1.008, -0.04, 192.0, 0.0, 0.0, 0.0, 0.0, 0.0, 0.0, 0.0, 0.0, 0.0, 1.695681161886063E9, 0.0, 2023-09-25 17:32:41.886
12.0, -187500.02235174447, 24433.16125072971, -36051.195687198124, -35479.50511926474, 8708.127881065355, 4568.003662586649, -187500.02235174447, -101480.71962365147, 2136.670307716168, -4801.311171211144, -21181.0494877159, -46081.29514232816, 21578.955242509277, -21598.065984018565, -26891.160236735373, -18574.120828404528, 0.116, 1.008, -0.04, 192.0, 0.0, 0.0, 0.0, 0.0, 0.0, 0.0, 0.0, 0.0, 0.0, 1.695681161886066E9, 0.0, 2023-09-25 17:32:41.886
0.0, -93750.01117587223, 12081.363747282476, -17970.51196938896, -17731.08008278371, 4116.05138970034, 2093.799661850889, -93750.01117587223, -46147.83628557161, 1037.2327014485243, -2373.017653586585, -10592.938732259123, -23012.663187106038, 10744.014173032543, -10807.38136856334, -13483.533380452798, -9301.499641120392, 0.11, 1.008, -0.056, 192.0, 1.5, 56.0, 15.5, 64.0, 127.0, 32.0, 0.0, 0.0, 0.0, 1.695681162046512E9, 0.0, 2023-09-25 17:32:42.046
2.0, -187500.02235174447, 24144.130843178136, -35946.03072953591, -35471.92787789439, 8198.262238295345, 4184.313617266848, -187500.02235174447, -92341.60540599888, 1864.1131358281536, -4906.54318410673, -19797.208284998927, -46375.71232029347, 20641.970114942804, -22469.605203819898, -26941.406958270905, -18817.799546456285, 0.11, 1.008, -0.056, 192.0, 0.0, 0.0, 0.0, 0.0, 0.0, 0.0, 0.0, 0.0, 0.0, 1.695681162046522E9, 0.0, 2023-09-25 17:32:42.046
4.0, -187500.02235174447, 24170.72941907995, -35947.43888943659, -35471.43613951637, 8259.930701247538, 4181.87727712122, -187500.02235174447, -92241.40253560574, 1921.0653807002761, -4915.550937122219, -19759.85852001411, -46388.363407655175, 20689.57933063261, -22457.937593214225, -26901.397335695903, -18802.91328464905, 0.11, 1.008, -0.056, 192.0, 0.0, 0.0, 0.0, 0.0, 0.0, 0.0, 0.0, 0.0, 0.0, 1.695681162046526E9, 0.0, 2023-09-25 17:32:42.046
6.0, -187500.02235174447, 24183.849893075218, -35891.336010853774, -35411.24289169823, 8196.563505716742, 4226.424303820647, -187500.02235174447, -92337.53738850802, 1873.6126272216593, -4890.472279843364, -19778.924558034487, -46347.30325309077, 20662.913699497425, -22452.81904373396, -26923.860838873487, -18810.95991265296, 0.11, 1.008, -0.056, 192.0, 0.0, 0.0, 0.0, 0.0, 0.0, 0.0, 0.0, 0.0, 0.0, 1.695681162046529E9, 0.0, 2023-09-25 17:32:42.046
8.0, -187500.02235174447, 24191.44948619002, -35936.151258486665, -35458.96386611031, 8295.514678420386, 4197.881126151219, -187500.02235174447, -92242.45306759514, 1960.5609131528038, -4872.8367534681265, -19714.28331306974, -46341.17887511002, 20728.91840087395, -22404.203999543668, -26918.697585904312, -18778.773400637318, 0.11, 1.004, -0.07, 192.0, 1.5, 56.0, 15.5, 48.0, 126.5, 104.0, 0.0, 0.0, 0.0, 1.695681162046532E9, 0.0, 2023-09-25 17:32:42.046
10.0, -187500.02235174447, 24193.841122846738, -35889.59257478626, -35407.86777828548, 8216.747130959884, 4220.098760139795, -187500.02235174447, -92320.01362085505, 1898.490118800416, -4874.446079068909, -19753.823549011177, -46347.8396949577, 20675.00599324775, -22438.133947626826, -26909.779239866646, -18797.012424112847, 0.11, 1.004, -0.07, 192.0, 0.0, 0.0, 0.0, 0.0, 0.0, 0.0, 0.0, 0.0, 0.0, 1.695681162046539E9, 0.0, 2023-09-25 17:32:42.046
12.0, -187500.02235174447, 24189.59429140023, -35942.365043445236, -35465.088244091065, 8292.854820830205, 4200.339818041303, -187500.02235174447, -92223.83406446387, 1956.649357873125, -4863.069041141158, -19707.220161821864, -46336.84263668569, 20710.634673909506, -22397.140848295792, -26919.569303938068, -18778.4828279594, 0.11, 1.004, -0.07, 192.0, 0.0, 0.0, 0.0, 0.0, 0.0, 0.0, 0.0, 0.0, 0.0, 1.695681162046543E9, 0.0, 2023-09-25 17:32:42.046
14.0, -187500.02235174447, 24166.951974267005, -35912.05607796384, -35430.51009541871, 8186.438165478488, 4209.571088501345, -187500.02235174447, -92291.35868446335, 1892.3210373307513, -4898.764777036283, -19759.947926991932, -46367.12925042263, 20682.963214273837, -22450.896793710806, -26894.51299840367, -18804.00852012736, 0.11, 1.004, -0.07, 192.0, 0.0, 0.0, 0.0, 0.0, 0.0, 0.0, 0.0, 0.0, 0.0, 1.695681162046546E9, 0.0, 2023-09-25 17:32:42.046
16.0, -187500.02235174447, 24171.668192347075, -35947.21537199204, -35468.64217145946, 8258.63430006913, 4198.395216273691, -187500.02235174447, -92209.30543056793, 1913.3987323521058, -4892.372178122066, -19738.937287203942, -46362.65890153157, 20659.024495962203, -22444.370084329854, -26926.18542029684, -18806.53426725081, 0.11, 1.004, -0.07, 192.0, 0.0, 0.0, 0.0, 0.0, 0.0, 0.0, 0.0, 0.0, 0.0, 1.695681162106753E9, 0.0, 2023-09-25 17:32:42.106
18.0, -187500.02235174447, 24150.59049732572, -35919.8791885232, -35436.232141999266, 8181.721947398419, 4193.723701682532, -187500.02235174447, -92260.1780009482, 1892.0528163972876, -4898.809480525194, -19752.90712748851, -46364.75996551037, 20673.351964158057, -22448.169880887257, -26886.75694307768, -18806.422508528532, 0.116, 1.004, -0.076, 192.0, 1.5, 80.0, 15.5, 48.0, 126.5, 80.0, 0.0, 0.0, 0.0, 1.695681162106766E9, 0.0, 2023-09-25 17:32:42.106
20.0, -187500.02235174447, 24157.74305555142, -35958.16772677514, -35476.77820644119, 8264.132829205135, 4175.663492162645, -187500.02235174447, -92186.8642791348, 1896.4561100549831, -4902.16224219349, -19746.313362874196, -46373.253628403385, 20634.392873572455, -22434.222392347147, -26924.218466784772, -18813.060976631758, 0.116, 1.004, -0.076, 192.0, 0.0, 0.0, 0.0, 0.0, 0.0, 0.0, 0.0, 0.0, 0.0, 1.69568116210677E9, 0.0, 2023-09-25 17:32:42.106
22.0, -187500.02235174447, 24165.253241688402, -35901.14842666965, -35414.37213592197, 8205.05716860976, 4208.945239656597, -187500.02235174447, -92236.06046868092, 1896.4561100549831, -4897.513079346786, -19750.649601298526, -46376.58403832722, 20676.369449659524, -22452.59552628941, -26868.584974835514, -18807.20481958447, 0.116, 1.004, -0.076, 192.0, 0.0, 0.0, 0.0, 0.0, 0.0, 0.0, 0.0, 0.0, 0.0, 1.695681162106773E9, 0.0, 2023-09-25 17:32:42.106
24.0, -187500.02235174447, 24145.91898273456, -35968.49423271349, -35486.903546679445, 8262.657614071086, 4177.563390441345, -187500.02235174447, -92158.36580495427, 1890.3764355631395, -4909.337152163644, -19739.116101159587, -46377.76868078336, 20639.89140270846, -22448.415750076267, -26917.982330081744, -18807.45068877348, 0.116, 1.004, -0.076, 192.0, 0.0, 0.0, 0.0, 0.0, 0.0, 0.0, 0.0, 0.0, 0.0, 1.695681162106777E9, 0.0, 2023-09-25 17:32:42.106
26.0, -187500.02235174447, 24156.06667471727, -35917.889883266675, -35434.24283674274, 8193.47896498191, 4198.015236617951, -187500.02235174447, -92173.29677025042, 1891.1587466190754, -4923.64226861504, -19746.33571461865, -46394.778358313844, 20674.246033936266, -22454.338962356924, -26837.091366897985, -18808.1882963405, 0.116, 1.004, -0.076, 192.0, 0.0, 0.0, 0.0, 0.0, 0.0, 0.0, 0.0, 0.0, 0.0, 1.69568116210678E9, 0.0, 2023-09-25 17:32:42.106
28.0, -187500.02235174447, 24128.618732526153, -35990.667163213155, -35512.47394233631, 8241.915195216561, 4149.355488938748, -187500.02235174447, -92109.61665029725, 1869.6340167086146, -4908.398378896521, -19737.685589514447, -46380.383834884626, 20597.35603301001, -22452.260250122577, -26896.547007149104, -18824.549773281786, 0.114, 1.008, -0.078, 192.0, 1.5, 72.0, 15.5, 64.0, 126.5, 72.0, 0.0, 0.0, 0.0, 1.695681162106784E9, 0.0, 2023-09-25 17:32:42.106
30.0, -187500.02235174447, 24171.019991757872, -35895.739304511466, -35407.24192944073, 8203.984284875904, 4199.378693029725, -187500.02235174447, -92118.87027250175, 1879.2452668243966, -4938.372068211087, -19754.71761878939, -46418.87353883667, 20660.544414585165, -22469.940479986726, -26802.826142648002, -18827.701369249986, 0.114, 1.008, -0.078, 192.0, 0.0, 0.0, 0.0, 0.0, 0.0, 0.0, 0.0, 0.0, 0.0, 1.695681162166068E9, 0.0, 2023-09-25 17:32:42.166
32.0, -187500.02235174447, 24168.427189401056, -35927.478781638005, -35449.79965088364, 8245.983212707426, 4215.181376359627, -187500.02235174447, -92114.17640616614, 1893.6621419980697, -4863.314910330166, -19704.023862364753, -46339.636604742605, 20621.80884144412, -22414.128174081823, -26897.150504249395, -18811.988092897904, 0.114, 1.008, -0.078, 192.0, 0.0, 0.0, 0.0, 0.0, 0.0, 0.0, 0.0, 0.0, 0.0, 1.695681162166081E9, 0.0, 2023-09-25 17:32:42.166
34.0, -187500.02235174447, 24175.937375538037, -35902.75775227043, -35414.975633022266, 8235.612003280165, 4213.4155885476575, -187500.02235174447, -92088.62836225372, 1926.4521511140051, -4904.620934083573, -19702.593350719613, -46389.32453266675, 20698.072993525624, -22433.283619080023, -26808.30232003955, -18794.03964210029, 0.114, 1.008, -0.078, 192.0, 0.0, 0.0, 0.0, 0.0, 0.0, 0.0, 0.0, 0.0, 0.0, 1.695681162166085E9, 0.0, 2023-09-25 17:32:42.166
36.0, -187500.02235174447, 24162.325163164754, -35928.037575249386, -35455.49934571974, 8238.920061459548, 4206.128919855228, -187500.02235174447, -92100.11715890374, 1880.2063918359747, -4878.6482070265065, -19703.152144330998, -46350.1419246366, 20605.089736591548, -22432.791880702007, -26886.578129122037, -18808.30005506278, 0.114, 1.008, -0.078, 192.0, 0.0, 0.0, 0.0, 0.0, 0.0, 0.0, 0.0, 0.0, 0.0, 1.695681162166089E9, 0.0, 2023-09-25 17:32:42.166
38.0, -187500.02235174447, 24156.893689262117, -35934.56428463034, -35456.10284282003, 8224.369075819144, 4184.559486455856, -187500.02235174447, -92039.4768761965, 1919.5901655662258, -4922.167053480989, -19703.688586197924, -46405.46249216348, 20690.76397308874, -22450.96384894417, -26797.059392578532, -18800.29813054778, 0.112, 1.014, -0.084, 192.0, 1.5, 64.0, 15.5, 88.0, 126.5, 48.0, 0.0, 0.0, 0.0, 1.695681162166093E9, 0.0, 2023-09-25 17:32:42.166
40.0, -187500.02235174447, 24152.57980258224, -35937.64882536517, -35461.78018591168, 8215.540136759299, 4199.669265707644, -187500.02235174447, -92068.7800131774, 1853.2948915117852, -4892.506288588797, -19728.47667079886, -46371.86782024716, 20611.616445972497, -22458.518738570063, -26865.567489334047, -18828.886011706116, 0.112, 1.014, -0.084, 192.0, 0.0, 0.0, 0.0, 0.0, 0.0, 0.0, 0.0, 0.0, 0.0, 1.695681162166098E9, 0.0, 2023-09-25 17:32:42.166
42.0, -187500.02235174447, 24163.48745387643, -35931.747964828966, -35451.16310729541, 8225.598421764185, 4175.708195651555, -187500.02235174447, -91990.52655583937, 1915.2092236529857, -4927.889100061548, -19698.927664628944, -46412.21271898899, 20689.869903310526, -22436.166994114756, -26780.988488315164, -18810.132898108113, 0.112, 1.014, -0.084, 192.0, 0.0, 0.0, 0.0, 0.0, 0.0, 0.0, 0.0, 0.0, 0.0, 1.695681162166101E9, 0.0, 2023-09-25 17:32:42.166
44.0, -187500.02235174447, 24171.221157457967, -35920.125057712205, -35445.48576420376, 8201.033854607804, 4199.602210474278, -187500.02235174447, -92052.66440542512, 1863.4425834944946, -4881.39747159451, -19708.985949633832, -46353.31587234925, 20613.873972162484, -22452.39436058931, -26849.764806004147, -18828.43897681701, 0.112, 1.014, -0.084, 192.0, 0.0, 0.0, 0.0, 0.0, 0.0, 0.0, 0.0, 0.0, 0.0, 1.695681162166105E9, 0.0, 2023-09-25 17:32:42.166
46.0, -187500.02235174447, 24185.280404720357, -35921.041479234875, -35448.74911889424, 8249.380677864632, 4186.437032990102, -187500.02235174447, -91968.26421836189, 1935.392848896128, -4904.889155017037, -19679.906330097478, -46390.28565767833, 20698.05064178117, -22438.066892393457, -26783.894215094355, -18806.86954341764, 0.112, 1.014, -0.084, 192.0, 0.0, 0.0, 0.0, 0.0, 0.0, 0.0, 0.0, 0.0, 0.0, 1.695681162225956E9, 0.0, 2023-09-25 17:32:42.225
48.0, -187500.02235174447, 24170.617660357675, -35907.96570872852, -35439.83077285657, 8218.758787960862, 4211.3592280577695, -187500.02235174447, -92039.2757104964, 1872.942074888, -4879.8775529715485, -19700.38052801854, -46351.52773279283, 20626.390949057455, -22448.05812216498, -26833.7833087186, -18819.252409845878, 0.106, 1.014, -0.076, 192.0, 1.5, 40.0, 15.5, 88.0, 126.5, 80.0, 0.0, 0.0, 0.0, 1.695681162225985E9, 0.0, 2023-09-25 17:32:42.225
50.0, -187500.02235174447, 24176.11618949368, -35933.133772985195, -35465.244706302256, 8281.343672435722, 4193.410777260158, -187500.02235174447, -91934.71424993448, 1939.393811153628, -4897.937762491437, -19665.17653050143, -46379.75798603988, 20690.294586455177, -22422.688892208207, -26783.11190403842, -18793.927883378015, 0.106, 1.014, -0.076, 192.0, 0.0, 0.0, 0.0, 0.0, 0.0, 0.0, 0.0, 0.0, 0.0, 1.695681162225988E9, 0.0, 2023-09-25 17:32:42.225
52.0, -187500.02235174447, 24161.788721297828, -35916.280557665894, -35452.571267196094, 8209.348703545178, 4203.133786098217, -187500.02235174447, -92008.81028280381, 1869.6340167086146, -4889.377044365054, -19694.814943649166, -46359.44025033001, 20622.32293156659, -22455.903584468793, -26810.78336367409, -18815.20674409947, 0.106, 1.014, -0.076, 192.0, 0.0, 0.0, 0.0, 0.0, 0.0, 0.0, 0.0, 0.0, 0.0, 1.695681162225992E9, 0.0, 2023-09-25 17:32:42.225
54.0, -187500.02235174447, 24169.947108024015, -35946.29895046937, -35483.79665420016, 8268.312605418278, 4176.78107938541, -187500.02235174447, -91897.65505762758, 1925.8039505248012, -4917.7414080788385, -19663.813074089656, -46394.219564702464, 20673.776647302708, -22439.296238338502, -26776.361677212917, -18801.303959048266, 0.106, 1.014, -0.076, 192.0, 0.0, 0.0, 0.0, 0.0, 0.0, 0.0, 0.0, 0.0, 0.0, 1.695681162225995E9, 0.0, 2023-09-25 17:32:42.225
56.0, -187500.02235174447, 24176.49616914942, -35894.86758647771, -35428.07375527308, 8204.3866162761, 4227.474835810046, -187500.02235174447, -91986.77146277088, 1876.4512987674832, -4884.325550118155, -19683.90729235498, -46355.640453772605, 20649.14502491296, -22447.991066931616, -26792.276119265094, -18811.652816731075, 0.106, 1.014, -0.076, 192.0, 0.0, 0.0, 0.0, 0.0, 0.0, 0.0, 0.0, 0.0, 0.0, 1.695681162225998E9, 0.0, 2023-09-25 17:32:42.225
58.0, -187500.02235174447, 24177.12201799417, -35941.42627017811, -35482.142625110464, 8291.357253951699, 4187.532268468412, -187500.02235174447, -91875.05744398326, 1938.1421134641307, -4889.5111548317855, -19633.16883244143, -46364.00000619889, 20671.608528090543, -22422.19715383019, -26786.93405234028, -18784.406040240054, 0.098, 1.016, -0.07200000000000001, 192.0, 1.5, 8.0, 15.5, 96.0, 126.5, 96.0, 0.0, 0.0, 0.0, 1.695681162226002E9, 0.0, 2023-09-25 17:32:42.226
60.0, -187500.02235174447, 24160.24645093041, -35921.041479234875, -35464.21652605731, 8217.931773416016, 4184.291265522393, -187500.02235174447, -91941.28566280434, 1885.101423871687, -4887.119518175068, -19664.103646767577, -46357.04861367329, 20647.826271990096, -22455.25538387959, -26775.646421390345, -18801.639235215098, 0.098, 1.016, -0.07200000000000001, 192.0, 0.0, 0.0, 0.0, 0.0, 0.0, 0.0, 0.0, 0.0, 0.0, 1.695681162286266E9, 0.0, 2023-09-25 17:32:42.286
62.0, -187500.02235174447, 24170.952936524503, -35949.137622015194, -35492.02209615971, 8280.315492190777, 4185.766480656443, -187500.02235174447, -91834.64549000806, 1901.619363024159, -4924.893966304537, -19660.8402920771, -46393.70547457999, 20652.78835925917, -22439.83268020543, -26773.187729500263, -18809.842325430196, 0.098, 1.016, -0.07200000000000001, 192.0, 0.0, 0.0, 0.0, 0.0, 0.0, 0.0, 0.0, 0.0, 0.0, 1.69568116228628E9, 0.0, 2023-09-25 17:32:42.286
64.0, -187500.02235174447, 24166.41553240008, -35906.46814185001, -35448.25738051622, 8205.90653489906, 4202.7314546980215, -187500.02235174447, -91905.90285133159, 1891.0246361523434, -4897.82600376916, -19672.485550938316, -46369.811459757264, 20661.84081576357, -22442.850165706895, -26749.696046077737, -18810.177601597024, 0.098, 1.016, -0.07200000000000001, 192.0, 0.0, 0.0, 0.0, 0.0, 0.0, 0.0, 0.0, 0.0, 0.0, 1.695681162286283E9, 0.0, 2023-09-25 17:32:42.286
66.0, -187500.02235174447, 24161.341686408723, -35958.4359477086, -35505.58960504408, 8291.848992329717, 4185.87823937872, -187500.02235174447, -91809.61153621812, 1907.3414096047177, -4901.2458206708225, -19646.915155281444, -46378.46158486147, 20633.27528634969, -22438.469223793654, -26780.16147377032, -18798.688804946996, 0.098, 1.016, -0.07200000000000001, 192.0, 0.0, 0.0, 0.0, 0.0, 0.0, 0.0, 0.0, 0.0, 0.0, 1.695681162286287E9, 0.0, 2023-09-25 17:32:42.286
68.0, -187500.02235174447, 24163.30863992079, -35918.605139089246, -35457.93568586537, 8218.848194938684, 4204.586649487812, -187500.02235174447, -91863.70275779995, 1889.3482553181955, -4896.015512468281, -19660.728533354824, -46374.63943655961, 20659.829158762594, -22444.16891862976, -26729.78064176806, -18797.593569468685, 0.088, 1.02, -0.07200000000000001, 192.0, 1.0, 96.0, 15.5, 112.0, 126.5, 96.0, 0.0, 0.0, 0.0, 1.69568116228629E9, 0.0, 2023-09-25 17:32:42.286
70.0, -187500.02235174447, 24153.339761893723, -35968.1366048022, -35522.64398606348, 8286.64103587163, 4163.392384456681, -187500.02235174447, -91774.83222184566, 1879.8264121802347, -4915.617992355585, -19661.555547899672, -46393.593715857714, 20626.74857696874, -22451.992029189114, -26764.559956140514, -18808.43416552951, 0.088, 1.02, -0.07200000000000001, 192.0, 0.0, 0.0, 0.0, 0.0, 0.0, 0.0, 0.0, 0.0, 0.0, 1.695681162286293E9, 0.0, 2023-09-25 17:32:42.286
72.0, -187500.02235174447, 24181.59236688523, -35885.63631601767, -35436.88034258847, 8215.808357692762, 4207.894707667197, -187500.02235174447, -91828.9681469164, 1892.522203030849, -4896.417843868476, -19663.723667111833, -46379.13213719513, 20667.60756583304, -22451.634401277828, -26699.04699314201, -18807.76361319585, 0.088, 1.02, -0.07200000000000001, 192.0, 0.0, 0.0, 0.0, 0.0, 0.0, 0.0, 0.0, 0.0, 0.0, 1.695681162286296E9, 0.0, 2023-09-25 17:32:42.286
74.0, -187500.02235174447, 24177.54670113882, -35937.26884570943, -35489.51870078072, 8285.16582073758, 4200.719797697044, -187500.02235174447, -91780.21899225938, 1903.8545374696896, -4875.876590714049, -19635.73928305379, -46344.91161643405, 20611.70585295032, -22424.56643874245, -26764.425845673784, -18802.10862184866, 0.088, 1.02, -0.07200000000000001, 192.0, 0.0, 0.0, 0.0, 0.0, 0.0, 0.0, 0.0, 0.0, 0.0, 1.6956811622863E9, 0.0, 2023-09-25 17:32:42.286
76.0, -187500.02235174447, 24179.5583581398, -35900.25435689144, -35450.87253461749, 8227.028933409325, 4199.512803496457, -187500.02235174447, -91795.68639942245, 1912.9964009519103, -4899.927067747959, -19649.08327449361, -46373.72301503694, 20671.921452512917, -22432.233087090623, -26684.361897034873, -18793.972586866927, 0.088, 1.02, -0.07200000000000001, 192.0, 0.0, 0.0, 0.0, 0.0, 0.0, 0.0, 0.0, 0.0, 0.0, 1.695681162346605E9, 0.0, 2023-09-25 17:32:42.346
78.0, -187500.02235174447, 24165.49911087741, -35945.49428766898, -35502.415657331425, 8260.623605325653, 4194.126033082728, -187500.02235174447, -91766.33855895264, 1891.13639487462, -4875.474259313853, -19646.17754771442, -46347.8396949577, 20611.772908183684, -22439.787976716518, -26758.189708970753, -18804.90258990557, 0.082, 1.01, -0.066, 192.0, 1.0, 72.0, 15.5, 72.0, 126.5, 120.0, 0.0, 0.0, 0.0, 1.695681162346616E9, 0.0, 2023-09-25 17:32:42.346
80.0, -187500.02235174447, 24195.450448447522, -35878.95314442553, -35423.64810987093, 8230.202881121979, 4221.082236895828, -187500.02235174447, -91771.97119855537, 1919.9254417330555, -4901.290524159733, -19647.22807970382, -46378.41688137256, 20679.588100861085, -22442.827813962438, -26672.873100384844, -18791.75976416585, 0.082, 1.01, -0.066, 192.0, 0.0, 0.0, 0.0, 0.0, 0.0, 0.0, 0.0, 0.0, 0.0, 1.695681162346619E9, 0.0, 2023-09-25 17:32:42.346
82.0, -187500.02235174447, 24187.78380009935, -35924.66246183663, -35481.941459410365, 8278.527352634354, 4197.2105738175605, -187500.02235174447, -91772.7088061224, 1908.1907758940192, -4841.678421697428, -19623.02114045872, -46314.89322363058, 20605.626178458475, -22399.063098318948, -26761.743636339146, -18786.149476307568, 0.082, 1.01, -0.066, 192.0, 0.0, 0.0, 0.0, 0.0, 0.0, 0.0, 0.0, 0.0, 0.0, 1.695681162346622E9, 0.0, 2023-09-25 17:32:42.346
84.0, -187500.02235174447, 24169.008334756894, -35924.9306827701, -35472.91135465042, 8254.2980616448, 4183.151326555172, -187500.02235174447, -91730.01697421276, 1935.102276218209, -4898.96594273638, -19635.672227820425, -46380.83086977373, 20690.24988296627, -22434.356502813876, -26666.27933577053, -18784.361336751146, 0.082, 1.01, -0.066, 192.0, 0.0, 0.0, 0.0, 0.0, 0.0, 0.0, 0.0, 0.0, 0.0, 1.695681162346626E9, 0.0, 2023-09-25 17:32:42.346
86.0, -187500.02235174447, 24132.127956405635, -35974.01511359395, -35525.79558203168, 8243.591576050709, 4170.29907349337, -187500.02235174447, -91727.4465236004, 1851.3055862552628, -4904.866803272582, -19676.173588773443, -46368.80563125678, 20603.569817968586, -22466.654773551796, -26732.753423780614, -18810.356415552666, 0.082, 1.01, -0.066, 192.0, 0.0, 0.0, 0.0, 0.0, 0.0, 0.0, 0.0, 0.0, 0.0, 1.695681162346629E9, 0.0, 2023-09-25 17:32:42.346
88.0, -187500.02235174447, 24144.175546667047, -35959.10650004226, -35500.87338696401, 8239.702372515485, 4166.342814724781, -187500.02235174447, -91657.0832320551, 1887.7836332063239, -4948.855036360626, -19683.057926065674, -46423.43329470555, 20658.95744072884, -22481.764552803583, -26630.31537894194, -18805.684900961507, 0.08600000000000001, 1.01, -0.064, 192.0, 1.0, 88.0, 15.5, 72.0, 127.0, 0.0, 0.0, 0.0, 0.0, 1.695681162346632E9, 0.0, 2023-09-25 17:32:42.346
90.0, -187500.02235174447, 24158.681828818542, -35933.24553170747, -35483.84135768907, 8227.990058420904, 4185.0065213449625, -187500.02235174447, -91712.82848272663, 1838.430981449006, -4897.803652024705, -19689.18230404643, -46363.664730032055, 20567.427047184356, -22470.20870092019, -26701.304519331996, -18825.689712249008, 0.08600000000000001, 1.01, -0.064, 192.0, 0.0, 0.0, 0.0, 0.0, 0.0, 0.0, 0.0, 0.0, 0.0, 1.695681162406828E9, 0.0, 2023-09-25 17:32:42.406
92.0, -187500.02235174447, 24176.83144531625, -35934.07254625232, -35478.67810471989, 8256.53323609033, 4176.736375896499, -187500.02235174447, -91640.76645860272, 1922.3394301342287, -4903.950381749914, -19647.51865238174, -46380.719111051454, 20660.522062840708, -22442.29137209551, -26633.89165805479, -18790.32925252071, 0.08600000000000001, 1.01, -0.064, 192.0, 0.0, 0.0, 0.0, 0.0, 0.0, 0.0, 0.0, 0.0, 0.0, 1.695681162406843E9, 0.0, 2023-09-25 17:32:42.406
94.0, -187500.02235174447, 24180.74300059593, -35906.557548827834, -35451.34192125105, 8222.983267662916, 4213.281478080926, -187500.02235174447, -91709.45336931388, 1857.9887578473995, -4880.592808794118, -19679.61575741956, -46351.728898492926, 20581.665108402387, -22455.59066004642, -26691.648565727304, -18806.109584106158, 0.08600000000000001, 1.01, -0.064, 192.0, 0.0, 0.0, 0.0, 0.0, 0.0, 0.0, 0.0, 0.0, 0.0, 1.695681162406847E9, 0.0, 2023-09-25 17:32:42.406
96.0, -187500.02235174447, 24187.761448354897, -35923.45546763605, -35465.33411328007, 8271.128925219647, 4191.332065025815, -187500.02235174447, -91617.40888564693, 1938.5444448643264, -4885.331378618644, -19636.208669687352, -46363.17299165404, 20656.744618027762, -22422.599485230385, -26637.356178445363, -18770.838531355683, 0.08600000000000001, 1.01, -0.064, 192.0, 0.0, 0.0, 0.0, 0.0, 0.0, 0.0, 0.0, 0.0, 0.0, 1.69568116240685E9, 0.0, 2023-09-25 17:32:42.406
98.0, -187500.02235174447, 24204.79347762984, -35875.62273450169, -35418.82013306858, 8229.420570066044, 4235.968498703062, -187500.02235174447, -91711.5991367816, 1878.7311767019246, -4849.322718301144, -19658.493358909294, -46320.12353183312, 20612.75638493972, -22422.375967785832, -26683.04314411201, -18786.82002864123, 0.09, 1.016, -0.066, 192.0, 1.0, 104.0, 15.5, 96.0, 126.5, 120.0, 0.0, 0.0, 0.0, 1.695681162406853E9, 0.0, 2023-09-25 17:32:42.406
100.0, -187500.02235174447, 24179.31248895079, -35945.360177202245, -35487.194119357366, 8310.870326861183, 4195.422434261136, -187500.02235174447, -91597.29231563715, 1946.836942057245, -4867.449983054398, -19629.726663795314, -46351.192456626, 20684.10315324106, -22405.589807699896, -26650.163728018255, -18755.86286257063, 0.09, 1.016, -0.066, 192.0, 0.0, 0.0, 0.0, 0.0, 0.0, 0.0, 0.0, 0.0, 0.0, 1.695681162406857E9, 0.0, 2023-09-25 17:32:42.406
102.0, -187500.02235174447, 24159.888823019126, -35929.11045898324, -35474.2748110622, 8214.400197792078, 4190.058015591862, -187500.02235174447, -91673.10943282956, 1856.5135427133494, -4888.460622842386, -19688.020013334753, -46359.99904394139, 20608.21898081529, -22469.001706719602, -26665.139396803308, -18796.14070607909, 0.09, 1.016, -0.066, 192.0, 0.0, 0.0, 0.0, 0.0, 0.0, 0.0, 0.0, 0.0, 0.0, 1.69568116240686E9, 0.0, 2023-09-25 17:32:42.406
104.0, -187500.02235174447, 24174.35040168171, -35947.72946211451, -35497.54297704017, 8285.478745159953, 4166.007538557951, -187500.02235174447, -91559.78608844115, 1904.2345171254299, -4912.131120220557, -19669.244547992297, -46393.43725364652, 20641.70189400934, -22447.566383786965, -26635.948018544677, -18794.978415367415, 0.09, 1.016, -0.066, 192.0, 0.0, 0.0, 0.0, 0.0, 0.0, 0.0, 0.0, 0.0, 0.0, 1.695681162406863E9, 0.0, 2023-09-25 17:32:42.406
106.0, -187500.02235174447, 24195.137524025147, -35881.81416771581, -35426.15150524992, 8206.57708723272, 4227.765408487965, -187500.02235174447, -91667.16386880445, 1870.5727899757374, -4866.980596420836, -19675.391277717506, -46342.899959433074, 20622.814669944604, -22438.379816815832, -26644.955771560166, -18804.433203272012, 0.09, 1.016, -0.066, 192.0, 0.0, 0.0, 0.0, 0.0, 0.0, 0.0, 0.0, 0.0, 0.0, 1.695681162466123E9, 0.0, 2023-09-25 17:32:42.466
108.0, -187500.02235174447, 24173.83631155924, -35963.196869277584, -35502.88504396499, 8284.048233514814, 4171.237846760493, -187500.02235174447, -91549.32547203607, 1923.1887964235302, -4892.171012421967, -19638.01916098823, -46364.53644806582, 20642.03717017617, -22433.61889524685, -26647.54857391698, -18779.91333960454, 0.092, 1.008, -0.064, 192.0, 1.0, 112.0, 15.5, 64.0, 127.0, 0.0, 0.0, 0.0, 0.0, 1.695681162466134E9, 0.0, 2023-09-25 17:32:42.466
110.0, -187500.02235174447, 24167.22019520047, -35920.68385132359, -35454.761738152716, 8207.895840155583, 4199.2669343074485, -187500.02235174447, -91629.50117939725, 1863.8672666391453, -4899.748253792316, -19680.37571673104, -46369.16325916806, 20623.261704833712, -22458.004648447593, -26628.393128918786, -18802.24273231539, 0.092, 1.008, -0.064, 192.0, 0.0, 0.0, 0.0, 0.0, 0.0, 0.0, 0.0, 0.0, 0.0, 1.695681162466138E9, 0.0, 2023-09-25 17:32:42.466
112.0, -187500.02235174447, 24151.104587448193, -35987.58262247832, -35525.84028552059, 8273.989948509927, 4150.026041272407, -187500.02235174447, -91515.32846871954, 1888.6553512400808, -4906.498480617819, -19662.047286277688, -46382.44019537452, 20619.998350143236, -22447.141700642314, -26646.252172738576, -18794.86665664514, 0.092, 1.008, -0.064, 192.0, 0.0, 0.0, 0.0, 0.0, 0.0, 0.0, 0.0, 0.0, 0.0, 1.695681162466141E9, 0.0, 2023-09-25 17:32:42.466
114.0, -187500.02235174447, 24178.06079126129, -35887.24564161845, -35420.76473483619, 8178.704461896952, 4199.557506985368, -187500.02235174447, -91602.34380988406, 1849.1151152986426, -4923.418751170487, -19704.917932142966, -46393.21373620197, 20606.430841258865, -22497.12020124438, -26603.761506529037, -18811.3398923087, 0.092, 1.008, -0.064, 192.0, 0.0, 0.0, 0.0, 0.0, 0.0, 0.0, 0.0, 0.0, 0.0, 1.695681162466144E9, 0.0, 2023-09-25 17:32:42.466
116.0, -187500.02235174447, 24179.714820350986, -35936.06185150884, -35472.93370639488, 8261.964709992972, 4185.610018445256, -187500.02235174447, -91540.34007076503, 1902.558136291282, -4871.786221478727, -19645.350533169574, -46338.83194194221, 20587.945948594326, -22421.504249752077, -26673.007210851578, -18785.881255374105, 0.092, 1.008, -0.064, 192.0, 0.0, 0.0, 0.0, 0.0, 0.0, 0.0, 0.0, 0.0, 0.0, 1.695681162466148E9, 0.0, 2023-09-25 17:32:42.466
118.0, -187500.02235174447, 24171.869358047174, -35901.81897900331, -35432.20882799731, 8171.596607160164, 4193.8131086603535, -187500.02235174447, -91609.49636810976, 1883.7603192043687, -4887.499497830809, -19674.206635261373, -46357.450945073484, 20612.912847150907, -22424.20881083117, -26642.899411070277, -18788.33994726419, 0.096, 1.016, -0.062, 192.0, 1.5, 0.0, 15.5, 96.0, 127.0, 8.0, 0.0, 0.0, 0.0, 1.695681162466151E9, 0.0, 2023-09-25 17:32:42.466
120.0, -187500.02235174447, 24176.384410427145, -35932.41851716262, -35473.11252035052, 8237.556605047776, 4183.799527144376, -187500.02235174447, -91559.74138495224, 1869.5893132197039, -4894.003855467303, -19677.46998995185, -46367.95626496748, 20550.64088709842, -22447.63343902033, -26712.793315982024, -18797.235941557403, 0.096, 1.016, -0.062, 192.0, 0.0, 0.0, 0.0, 0.0, 0.0, 0.0, 0.0, 0.0, 0.0, 1.695681162525954E9, 0.0, 2023-09-25 17:32:42.525
122.0, -187500.02235174447, 24197.97619557097, -35871.64412398865, -35408.09129573003, 8200.273895296323, 4206.799472188887, -187500.02235174447, -91611.48567336627, 1904.0780549142428, -4879.452869826898, -19663.343687456094, -46356.31100610626, 20628.08968163606, -22419.604351473376, -26659.79732987849, -18785.18835129599, 0.096, 1.016, -0.062, 192.0, 0.0, 0.0, 0.0, 0.0, 0.0, 0.0, 0.0, 0.0, 0.0, 1.695681162525967E9, 0.0, 2023-09-25 17:32:42.525
124.0, -187500.02235174447, 24153.58563108273, -35972.003456592975, -35518.03952670569, 8268.089087973725, 4146.516817392924, -187500.02235174447, -91549.30312029162, 1903.4298543250388, -4869.394584822009, -19645.819919803136, -46344.732802478415, 20586.247216015723, -22425.48286026512, -26728.9089237343, -18791.1339153211, 0.096, 1.016, -0.062, 192.0, 0.0, 0.0, 0.0, 0.0, 0.0, 0.0, 0.0, 0.0, 0.0, 1.695681162525971E9, 0.0, 2023-09-25 17:32:42.525
126.0, -187500.02235174447, 24177.16672148308, -35898.51092082392, -35432.07471753058, 8224.279668841324, 4186.4146812456465, -187500.02235174447, -91549.10195459152, 1884.296761071296, -4929.297259962233, -19691.84216163661, -46413.106788767196, 20657.70574303934, -22480.088171969437, -26615.138544456786, -18808.72473820743, 0.096, 1.016, -0.062, 192.0, 0.0, 0.0, 0.0, 0.0, 0.0, 0.0, 0.0, 0.0, 0.0, 1.695681162525974E9, 0.0, 2023-09-25 17:32:42.525
128.0, -187500.02235174447, 24190.22014024498, -35915.05121172085, -35452.75008115174, 8272.939416520527, 4202.753806442476, -187500.02235174447, -91539.84833238702, 1895.1373571321199, -4869.305177844189, -19656.54875714168, -46341.55885476576, 20611.236466316757, -22440.704398239184, -26690.218054082165, -18803.91911314954, 0.096, 1.01, -0.062, 192.0, 1.5, 0.0, 15.5, 72.0, 127.0, 8.0, 0.0, 0.0, 0.0, 1.695681162525977E9, 0.0, 2023-09-25 17:32:42.525
130.0, -187500.02235174447, 24222.205486560524, -35857.29430404834, -35391.86392925548, 8256.086201201226, 4222.8703764522525, -187500.02235174447, -91541.12238182097, 1948.4015641691167, -4866.064174898169, -19636.65570457646, -46348.10791589117, 20700.53168541571, -22416.56451422745, -26605.571997829917, -18776.20295002496, 0.096, 1.01, -0.062, 192.0, 0.0, 0.0, 0.0, 0.0, 0.0, 0.0, 0.0, 0.0, 0.0, 1.695681162525981E9, 0.0, 2023-09-25 17:32:42.525
132.0, -187500.02235174447, 24185.526273909363, -35932.999662518465, -35473.470148261804, 8273.364099665177, 4189.499221980479, -187500.02235174447, -91539.7589254092, 1908.5707555497595, -4842.259567053266, -19636.476890620816, -46316.97193586492, 20623.865201934004, -22411.4906682361, -26686.887644158323, -18783.1319908061, 0.096, 1.01, -0.062, 192.0, 0.0, 0.0, 0.0, 0.0, 0.0, 0.0, 0.0, 0.0, 0.0, 1.695681162525984E9, 0.0, 2023-09-25 17:32:42.525
134.0, -187500.02235174447, 24198.624396160176, -35897.86272023472, -35428.811362840104, 8242.943375461504, 4192.6955214375885, -187500.02235174447, -91494.13901497591, 1911.878813729145, -4917.473187145375, -19668.08225728062, -46402.22148921746, 20672.301432168657, -22449.958020443682, -26585.790703986968, -18790.843342643184, 0.096, 1.01, -0.062, 192.0, 0.0, 0.0, 0.0, 0.0, 0.0, 0.0, 0.0, 0.0, 0.0, 1.695681162525987E9, 0.0, 2023-09-25 17:32:42.525
136.0, -187500.02235174447, 24177.479645905452, -35920.482685623494, -35466.80932841412, 8235.29907885779, 4191.667341192644, -187500.02235174447, -91529.96886133777, 1871.623321965137, -4862.242026596311, -19656.54875714168, -46331.6346802276, 20566.980012295247, -22421.258380563067, -26679.936251632724, -18801.795697426285, 0.096, 1.01, -0.062, 192.0, 0.0, 0.0, 0.0, 0.0, 0.0, 0.0, 0.0, 0.0, 0.0, 1.695681162586219E9, 0.0, 2023-09-25 17:32:42.586
138.0, -187500.02235174447, 24187.336765210246, -35917.264034421925, -35456.01343584221, 8240.171759149047, 4171.170791527127, -187500.02235174447, -91458.59974129198, 1911.2529648843963, -4919.171919723978, -19656.12407399703, -46399.71809383847, 20640.919582953404, -22453.86957572336, -26592.183302901187, -18790.552769965267, 0.094, 1.012, -0.06, 192.0, 1.0, 120.0, 15.5, 80.0, 127.0, 16.0, 0.0, 0.0, 0.0, 1.69568116258625E9, 0.0, 2023-09-25 17:32:42.586
140.0, -187500.02235174447, 24197.730326381963, -35890.95603119803, -35433.75109836472, 8232.259241611868, 4197.881126151219, -187500.02235174447, -91528.24777701471, 1857.8322956362124, -4863.046689396702, -19658.716876353847, -46337.379078552614, 20564.6554308719, -22458.697552525708, -26669.34152476091, -18809.48469751891, 0.094, 1.012, -0.06, 192.0, 0.0, 0.0, 0.0, 0.0, 0.0, 0.0, 0.0, 0.0, 0.0, 1.695681162586256E9, 0.0, 2023-09-25 17:32:42.586
142.0, -187500.02235174447, 24169.902404535103, -35949.15997375965, -35489.60810775854, 8265.473933872454, 4147.053259259851, -187500.02235174447, -91419.39478151736, 1932.7553430504017, -4892.148660677512, -19629.190221928387, -46378.88626800612, 20650.5755365581, -22442.514889540063, -26600.811076260936, -18780.42742972701, 0.094, 1.012, -0.06, 192.0, 0.0, 0.0, 0.0, 0.0, 0.0, 0.0, 0.0, 0.0, 0.0, 1.695681162586259E9, 0.0, 2023-09-25 17:32:42.586
144.0, -187500.02235174447, 24175.959727282494, -35912.54781634186, -35453.57709569658, 8216.590668748697, 4180.916152109641, -187500.02235174447, -91482.58316309252, 1846.9246443420225, -4894.2050211674, -19673.84900735009, -46366.50340157788, 20567.158826250892, -22479.708192313694, -26629.667178352738, -18819.006540656872, 0.094, 1.012, -0.06, 192.0, 0.0, 0.0, 0.0, 0.0, 0.0, 0.0, 0.0, 0.0, 0.0, 1.695681162586262E9, 0.0, 2023-09-25 17:32:42.586
146.0, -187500.02235174447, 24178.083143005748, -35939.59342713278, -35476.80055818565, 8281.433079413544, 4157.133896009194, -187500.02235174447, -91365.66118784681, 1929.4025813821056, -4904.486823616841, -19632.185355685397, -46386.28469542083, 20650.642591791464, -22449.421578576756, -26563.774235698493, -18791.871522888126, 0.094, 1.012, -0.06, 192.0, 0.0, 0.0, 0.0, 0.0, 0.0, 0.0, 0.0, 0.0, 0.0, 1.695681162586266E9, 0.0, 2023-09-25 17:32:42.586
148.0, -187500.02235174447, 24179.91598605108, -35898.26505163492, -35437.03680479965, 8229.129997388125, 4190.9967888589845, -187500.02235174447, -91444.02640390712, 1863.2414177943967, -4880.793974494216, -19659.18626298741, -46355.50634330587, 20592.237483529745, -22456.775302502552, -26587.176512143196, -18816.369034811145, 0.092, 1.006, -0.064, 192.0, 1.0, 112.0, 15.5, 56.0, 127.0, 0.0, 0.0, 0.0, 0.0, 1.695681162586269E9, 0.0, 2023-09-25 17:32:42.586
150.0, -187500.02235174447, 24183.984003541947, -35931.90442704015, -35471.234973816274, 8284.987006781937, 4171.059032804851, -187500.02235174447, -91324.3104606045, 1937.0915814747314, -4887.141869919524, -19629.16787018393, -46372.18074466953, 20644.697027766353, -22430.243781834102, -26544.97641861158, -18790.39630775408, 0.092, 1.006, -0.064, 192.0, 0.0, 0.0, 0.0, 0.0, 0.0, 0.0, 0.0, 0.0, 0.0, 1.695681162646551E9, 0.0, 2023-09-25 17:32:42.646
152.0, -187500.02235174447, 24197.059774048303, -35874.46044379001, -35411.756981820705, 8208.85696516716, 4210.107530368273, -187500.02235174447, -91418.3218977835, 1866.616531207148, -4877.48591631483, -19661.801417088678, -46354.07583166073, 20598.585378955053, -22458.87636648135, -26555.68290420567, -18808.322406807234, 0.092, 1.006, -0.064, 192.0, 0.0, 0.0, 0.0, 0.0, 0.0, 0.0, 0.0, 0.0, 0.0, 1.695681162646563E9, 0.0, 2023-09-25 17:32:42.646
154.0, -187500.02235174447, 24196.702146137017, -35921.980252502, -35459.701473677334, 8290.396128940121, 4185.520611467435, -187500.02235174447, -91306.96550690717, 1929.9613749934883, -4877.888247715026, -19623.937561981387, -46361.720128264446, 20631.151870626436, -22433.26126733557, -26546.898668634734, -18785.322461762724, 0.092, 1.006, -0.064, 192.0, 0.0, 0.0, 0.0, 0.0, 0.0, 0.0, 0.0, 0.0, 0.0, 1.695681162646566E9, 0.0, 2023-09-25 17:32:42.646
156.0, -187500.02235174447, 24192.50001817942, -35882.06003690482, -35413.500417888215, 8208.834613422707, 4209.9510681570855, -187500.02235174447, -91396.23837426167, 1870.326920786729, -4877.620026781563, -19661.22027173284, -46359.12732590763, 20600.909960378405, -22451.54499430001, -26544.685845933658, -18800.096964847682, 0.092, 1.006, -0.064, 192.0, 0.0, 0.0, 0.0, 0.0, 0.0, 0.0, 0.0, 0.0, 0.0, 1.69568116264657E9, 0.0, 2023-09-25 17:32:42.646
158.0, -187500.02235174447, 24178.59723312822, -35938.85581956575, -35486.143587367966, 8288.853858572706, 4156.306881464348, -187500.02235174447, -91271.11330880086, 1915.075113186254, -4894.383835123042, -19636.566297598638, -46378.640398817115, 20616.80205068613, -22439.497404038597, -26547.144537823744, -18796.163057823545, 0.092, 1.01, -0.066, 192.0, 1.0, 112.0, 15.5, 72.0, 126.5, 120.0, 0.0, 0.0, 0.0, 1.695681162646573E9, 0.0, 2023-09-25 17:32:42.646
160.0, -187500.02235174447, 24193.014108301893, -35872.47113853349, -35414.10391498851, 8193.814241148739, 4208.49820476749, -187500.02235174447, -91355.5134958641, 1874.9537318889777, -4889.10882343159, -19670.205673003875, -46370.593770813204, 20607.347262781535, -22462.743218272117, -26516.992034553532, -18811.25048533088, 0.092, 1.01, -0.066, 192.0, 0.0, 0.0, 0.0, 0.0, 0.0, 0.0, 0.0, 0.0, 0.0, 1.695681162646576E9, 0.0, 2023-09-25 17:32:42.646
162.0, -187500.02235174447, 24189.79545710033, -35937.73823234299, -35483.86370943352, 8282.438907914033, 4176.915189852141, -187500.02235174447, -91249.05213702348, 1911.6105927956812, -4878.491744815319, -19632.45357661886, -46364.75996551037, 20592.729221907764, -22438.53627902702, -26546.295171534442, -18797.97354912443, 0.092, 1.01, -0.066, 192.0, 0.0, 0.0, 0.0, 0.0, 0.0, 0.0, 0.0, 0.0, 0.0, 1.695681162646579E9, 0.0, 2023-09-25 17:32:42.646
164.0, -187500.02235174447, 24192.611776901696, -35880.40600781512, -35421.256473214205, 8201.212668563447, 4195.444786005591, -187500.02235174447, -91309.67006798627, 1882.1286418591312, -4895.188497923434, -19663.768370600745, -46380.76381454037, 20602.586341212555, -22472.242709665625, -26489.67820282915, -18815.787889455307, 0.092, 1.01, -0.066, 192.0, 0.0, 0.0, 0.0, 0.0, 0.0, 0.0, 0.0, 0.0, 0.0, 1.695681162646582E9, 0.0, 2023-09-25 17:32:42.646
166.0, -187500.02235174447, 24196.702146137017, -35930.42921190611, -35474.945363395855, 8283.444736414522, 4166.231056002504, -187500.02235174447, -91228.22031119112, 1898.9595054339775, -4876.815363981172, -19634.197012686374, -46356.22159912844, 20591.097544562526, -22449.153357643292, -26539.96962785359, -18808.81414518525, 0.092, 1.01, -0.066, 192.0, 0.0, 0.0, 0.0, 0.0, 0.0, 0.0, 0.0, 0.0, 0.0, 1.695681162706866E9, 0.0, 2023-09-25 17:32:42.706
168.0, -187500.02235174447, 24192.12003852368, -35889.68198176408, -35425.27978721616, 8199.312770284745, 4187.420509746135, -187500.02235174447, -91261.97144531865, 1886.330769816729, -4897.624838069062, -19661.13086475502, -46379.2438959174, 20615.4162425299, -22474.030849222047, -26465.985353706525, -18807.00365388437, 0.09, 1.014, -0.066, 192.0, 1.0, 104.0, 15.5, 88.0, 126.5, 120.0, 0.0, 0.0, 0.0, 1.695681162706875E9, 0.0, 2023-09-25 17:32:42.706
170.0, -187500.02235174447, 24184.4086866866, -35935.01131951944, -35479.773340198204, 8254.990965722915, 4171.640178160689, -187500.02235174447, -91196.48083406458, 1879.2229150799412, -4874.468430813365, -19641.483681378806, -46351.59478802619, 20555.513567389677, -22440.72674998364, -26525.172773024176, -18809.68586321901, 0.09, 1.014, -0.066, 192.0, 0.0, 0.0, 0.0, 0.0, 0.0, 0.0, 0.0, 0.0, 0.0, 1.695681162706879E9, 0.0, 2023-09-25 17:32:42.706
172.0, -187500.02235174447, 24204.59231192974, -35870.12420536568, -35404.93969976183, 8197.882258639605, 4201.703274453077, -187500.02235174447, -91236.06577349493, 1890.4658425409607, -4893.10978568909, -19652.860719306555, -46373.65595980358, 20615.79622218564, -22450.785034988527, -26448.550993031382, -18804.254389316367, 0.09, 1.014, -0.066, 192.0, 0.0, 0.0, 0.0, 0.0, 0.0, 0.0, 0.0, 0.0, 0.0, 1.695681162706882E9, 0.0, 2023-09-25 17:32:42.706
174.0, -187500.02235174447, 24191.583596656754, -35953.5856191618, -35498.0794189071, 8244.887977229117, 4165.515800179935, -187500.02235174447, -91198.09015966537, 1875.199601077986, -4862.309081829677, -19642.22128894583, -46350.00781416986, 20549.16567196437, -22438.379816815832, -26535.34281675134, -18812.09985162018, 0.09, 1.014, -0.066, 192.0, 0.0, 0.0, 0.0, 0.0, 0.0, 0.0, 0.0, 0.0, 0.0, 1.695681162706885E9, 0.0, 2023-09-25 17:32:42.706
176.0, -187500.02235174447, 24153.317410149266, -35910.15617968514, -35452.660674173916, 8198.843383651183, 4156.932730309097, -187500.02235174447, -91193.30688635193, 1893.5727350202485, -4922.59173662564, -19669.17749275893, -46410.49163466592, 20615.84092567455, -22490.16880871878, -26445.444100552097, -18824.23684885941, 0.09, 1.014, -0.066, 192.0, 0.0, 0.0, 0.0, 0.0, 0.0, 0.0, 0.0, 0.0, 0.0, 1.695681162706888E9, 0.0, 2023-09-25 17:32:42.706
178.0, -187500.02235174447, 24127.277627858835, -35916.414668132624, -35465.89290689146, 8230.180529377523, 4186.191163801094, -187500.02235174447, -91203.20870914563, 1841.8284466062125, -4917.182614467456, -19663.187225244907, -46377.18753542752, 20535.754625291185, -22480.669317325275, -26529.48665970405, -18835.368017598157, 0.092, 1.01, -0.064, 192.0, 1.0, 112.0, 15.5, 72.0, 127.0, 0.0, 0.0, 0.0, 0.0, 1.695681162706891E9, 0.0, 2023-09-25 17:32:42.706
180.0, -187500.02235174447, 24090.39724950758, -35893.839406232764, -35439.294330989644, 8211.762691946351, 4185.520611467435, -187500.02235174447, -91195.07267416391, 1889.0800343847318, -4942.238920001855, -19649.440902404895, -46403.026152017854, 20617.85258267553, -22473.78498003304, -26461.403246093185, -18807.540095751297, 0.092, 1.01, -0.064, 192.0, 0.0, 0.0, 0.0, 0.0, 0.0, 0.0, 0.0, 0.0, 0.0, 1.695681162767087E9, 0.0, 2023-09-25 17:32:42.767
182.0, -187500.02235174447, 24009.93096946847, -35938.788764332385, -35494.0784566496, 8218.870546683138, 4167.505105436457, -187500.02235174447, -91215.39040987378, 1822.2483184633636, -4967.228170302888, -19679.660460908468, -46401.61799211717, 20543.108349216982, -22491.196988963722, -26551.033741358966, -18829.15423263958, 0.092, 1.01, -0.064, 192.0, 0.0, 0.0, 0.0, 0.0, 0.0, 0.0, 0.0, 0.0, 0.0, 1.6956811627671E9, 0.0, 2023-09-25 17:32:42.767
184.0, -187500.02235174447, 23974.726971951364, -35935.32424394182, -35482.366142555016, 8227.990058420904, 4160.106678021751, -187500.02235174447, -91165.99305462756, 1846.2987954972739, -5035.0880664692, -19698.167705317464, -46473.34474007425, 20617.27143731969, -22513.772250863585, -26464.867766483756, -18821.711101735964, 0.092, 1.01, -0.064, 192.0, 0.0, 0.0, 0.0, 0.0, 0.0, 0.0, 0.0, 0.0, 0.0, 1.695681162767104E9, 0.0, 2023-09-25 17:32:42.767
186.0, -187500.02235174447, 23889.812694765653, -35955.17259301813, -35515.20085515986, 8221.061017639759, 4158.475000676513, -187500.02235174447, -91214.80926451794, 1773.297998106241, -5045.794552063293, -19726.04033065323, -46456.60328347723, 20543.44362538381, -22530.31254176051, -26543.25533428852, -18847.86264274867, 0.092, 1.01, -0.064, 192.0, 0.0, 0.0, 0.0, 0.0, 0.0, 0.0, 0.0, 0.0, 0.0, 1.695681162767108E9, 0.0, 2023-09-25 17:32:42.767
188.0, -187500.02235174447, 23840.57180173061, -35939.39226143268, -35498.39234332947, 8224.682000241519, 4152.618843629222, -187500.02235174447, -91156.94059812315, 1812.2570886918413, -5122.103407633711, -19731.8070807227, -46525.15608372165, 20622.23352458877, -22533.93352436227, -26472.534414831927, -18836.709122265474, 0.094, 1.012, -0.064, 192.0, 1.0, 120.0, 15.5, 80.0, 127.0, 0.0, 0.0, 0.0, 0.0, 1.695681162767111E9, 0.0, 2023-09-25 17:32:42.767
190.0, -187500.02235174447, 23779.886815534453, -35955.46316569605, -35517.816009261136, 8188.449822479466, 4150.607186628245, -187500.02235174447, -91235.43992465019, 1744.7771721812694, -5119.220032598977, -19755.030543211764, -46496.34468511876, 20528.736177532217, -22546.74107393516, -26555.92877339468, -18857.675058564553, 0.094, 1.012, -0.064, 192.0, 0.0, 0.0, 0.0, 0.0, 0.0, 0.0, 0.0, 0.0, 0.0, 1.695681162767114E9, 0.0, 2023-09-25 17:32:42.767
192.0, -187500.02235174447, 23752.23770764324, -35980.00538110798, -35543.85579155157, 8227.967706676449, 4108.76472100791, -187500.02235174447, -91144.17775203918, 1793.9957134718554, -5188.286922965875, -19757.511586846304, -46562.55055219538, 20597.020756843183, -22558.60985024093, -26502.798676824415, -18851.505977094886, 0.094, 1.012, -0.064, 192.0, 0.0, 0.0, 0.0, 0.0, 0.0, 0.0, 0.0, 0.0, 0.0, 1.695681162767118E9, 0.0, 2023-09-25 17:32:42.767
194.0, -187500.02235174447, 23745.17455639536, -35953.31739822834, -35524.14155294199, 8182.928941599005, 4154.205817485549, -187500.02235174447, -91238.74798282958, 1730.561462707694, -5171.321948924297, -19787.23940697186, -46530.609909368744, 20541.25315442719, -22597.412478615344, -26559.63916297426, -18883.334861199244, 0.094, 1.012, -0.064, 192.0, 0.0, 0.0, 0.0, 0.0, 0.0, 0.0, 0.0, 0.0, 0.0, 1.695681162767121E9, 0.0, 2023-09-25 17:32:42.767
196.0, -187500.02235174447, 23720.475878772246, -36023.92655896265, -35595.33185903214, 8217.48473852691, 4094.8842877011643, -187500.02235174447, -91114.71815284708, 1798.8236902742017, -5222.038057093389, -19775.43768589946, -46594.55825025538, 20587.65537591641, -22600.31820539453, -26511.06882227288, -18864.648802834607, 0.094, 1.012, -0.064, 192.0, 0.0, 0.0, 0.0, 0.0, 0.0, 0.0, 0.0, 0.0, 0.0, 1.695681162825894E9, 0.0, 2023-09-25 17:32:42.825
198.0, -187500.02235174447, 23749.488443075235, -35963.39803497768, -35533.21636119084, 8135.23031893138, 4133.686916075578, -187500.02235174447, -91213.781084273, 1724.8617678715907, -5213.767911644925, -19822.510459722336, -46575.11223257926, 20516.53212505962, -22639.701979124784, -26542.137747065754, -18904.904294598615, 0.1, 1.008, -0.066, 192.0, 1.5, 16.0, 15.5, 64.0, 126.5, 120.0, 0.0, 0.0, 0.0, 1.695681162825906E9, 0.0, 2023-09-25 17:32:42.825
200.0, -187500.02235174447, 23801.27743497818, -35981.48059624202, -35550.740128843805, 8213.327314058222, 4109.591735552756, -187500.02235174447, -91110.38191442275, 1816.5486236272602, -5202.770853372915, -19763.166578193497, -46565.724499908036, 20571.875044330962, -22598.32890013801, -26526.469174202583, -18875.06471575078, 0.1, 1.008, -0.066, 192.0, 0.0, 0.0, 0.0, 0.0, 0.0, 0.0, 0.0, 0.0, 0.0, 1.695681162825909E9, 0.0, 2023-09-25 17:32:42.825
202.0, -187500.02235174447, 23827.496031224255, -35942.27563646741, -35514.798523759666, 8146.920281281506, 4126.981392738985, -187500.02235174447, -91209.10956968184, 1805.2833444217856, -5152.635890559661, -19765.58056659467, -46517.04240048437, 20560.721523847762, -22601.39108912839, -26550.9666861256, -18892.633186892654, 0.1, 1.008, -0.066, 192.0, 0.0, 0.0, 0.0, 0.0, 0.0, 0.0, 0.0, 0.0, 0.0, 1.695681162825913E9, 0.0, 2023-09-25 17:32:42.825
204.0, -187500.02235174447, 23853.75933095924, -35987.58262247832, -35563.68178888343, 8217.305924571267, 4100.271058114893, -187500.02235174447, -91093.50634735898, 1856.7594119023577, -5176.6640158491155, -19737.126795903063, -46548.35719446626, 20577.865311844984, -22595.356118125455, -26542.853002888325, -18878.55158788581, 0.1, 1.008, -0.066, 192.0, 0.0, 0.0, 0.0, 0.0, 0.0, 0.0, 0.0, 0.0, 0.0, 1.695681162825916E9, 0.0, 2023-09-25 17:32:42.825
206.0, -187500.02235174447, 23855.81569144913, -35968.67304666914, -35543.96755027385, 8134.783284042273, 4108.250630885438, -187500.02235174447, -91182.13101412429, 1833.1559697575535, -5152.747649281937, -19758.47271185788, -46527.54772037837, 20558.285183702134, -22629.91191505336, -26536.281590018465, -18896.902370083615, 0.1, 1.008, -0.066, 192.0, 0.0, 0.0, 0.0, 0.0, 0.0, 0.0, 0.0, 0.0, 0.0, 1.695681162825919E9, 0.0, 2023-09-25 17:32:42.825
208.0, -187500.02235174447, 23867.930336943908, -36018.07040191536, -35593.14138807552, 8204.610133720653, 4086.412976552603, -187500.02235174447, -91054.72607072903, 1850.2103507769527, -5201.385045216685, -19758.316249646694, -46580.20843031507, 20551.289087687623, -22643.39001695991, -26534.761671395503, -18900.277483496367, 0.092, 1.008, -0.056, 192.0, 1.0, 112.0, 15.5, 64.0, 127.0, 32.0, 0.0, 0.0, 0.0, 1.695681162825922E9, 0.0, 2023-09-25 17:32:42.825
210.0, -187500.02235174447, 23933.152727264493, -35908.47979885099, -35481.69559022136, 8144.193368457958, 4153.088230262784, -187500.02235174447, -91163.020272615, 1852.7360979004025, -5130.999401926923, -19743.944077961933, -46515.32131616132, 20566.912957061882, -22628.839031319505, -26510.733546106047, -18901.21625676349, 0.092, 1.008, -0.056, 192.0, 0.0, 0.0, 0.0, 0.0, 0.0, 0.0, 0.0, 0.0, 0.0, 1.695681162886317E9, 0.0, 2023-09-25 17:32:42.886
212.0, -187500.02235174447, 23907.314110674157, -36021.17729439465, -35596.22592881035, 8209.281648311811, 4063.256569296905, -187500.02235174447, -91043.34903280128, 1889.683531485025, -5134.8662537176915, -19708.31539730017, -46520.70808657505, 20575.831303099552, -22611.71759506674, -26549.402064013728, -18888.855742079704, 0.092, 1.008, -0.056, 192.0, 0.0, 0.0, 0.0, 0.0, 0.0, 0.0, 0.0, 0.0, 0.0, 1.69568116288633E9, 0.0, 2023-09-25 17:32:42.886
214.0, -187500.02235174447, 23946.966105337873, -35937.91704629863, -35505.2319771328, 8131.676391562986, 4114.6879332885665, -187500.02235174447, -91116.37218193676, 1853.2948915117852, -5136.430875829563, -19748.14620591953, -46530.69931634657, 20587.565968938587, -22631.655351120873, -26490.28169992944, -18915.92370461508, 0.092, 1.008, -0.056, 192.0, 0.0, 0.0, 0.0, 0.0, 0.0, 0.0, 0.0, 0.0, 0.0, 1.695681162886333E9, 0.0, 2023-09-25 17:32:42.886
216.0, -187500.02235174447, 23951.861137373584, -35990.28718355742, -35568.46506219686, 8192.540191714786, 4092.1797266220724, -187500.02235174447, -91043.34903280128, 1877.0994993566871, -5108.357084793697, -19710.684682212435, -46502.96080147753, 20564.811893083086, -22610.62235958843, -26554.431206516172, -18909.329940000767, 0.092, 1.008, -0.056, 192.0, 0.0, 0.0, 0.0, 0.0, 0.0, 0.0, 0.0, 0.0, 0.0, 1.695681162886337E9, 0.0, 2023-09-25 17:32:42.886
218.0, -187500.02235174447, 23985.969899412383, -35912.503112852944, -35485.651848989946, 8131.408170629522, 4141.018288256918, -187500.02235174447, -91104.01166725298, 1889.7058832294804, -5108.1559190936, -19715.42325203696, -46509.06282771383, 20607.391966270443, -22606.934321753302, -26489.789961551425, -18898.22112300648, 0.09, 1.006, -0.06, 192.0, 1.0, 104.0, 15.5, 56.0, 127.0, 16.0, 0.0, 0.0, 0.0, 1.69568116288634E9, 0.0, 2023-09-25 17:32:42.886
220.0, -187500.02235174447, 23977.31977430818, -35973.83629963831, -35557.66916962495, 8200.273895296323, 4111.849261742743, -187500.02235174447, -91059.4422888091, 1897.551345533293, -5072.683700643027, -19685.538969700214, -46469.1202603722, 20559.291012202622, -22580.067524918024, -26569.16100611222, -18892.74494561493, 0.09, 1.006, -0.06, 192.0, 0.0, 0.0, 0.0, 0.0, 0.0, 0.0, 0.0, 0.0, 0.0, 1.695681162886344E9, 0.0, 2023-09-25 17:32:42.886
222.0, -187500.02235174447, 23979.73376270935, -35944.35434870176, -35515.53613132669, 8144.014554502315, 4105.613125039712, -187500.02235174447, -91067.17599239064, 1897.32782808874, -5117.9012796761135, -19712.80809793569, -46522.6303365982, 20614.298655307135, -22615.71855732424, -26478.9493654906, -18894.17545726007, 0.09, 1.006, -0.06, 192.0, 0.0, 0.0, 0.0, 0.0, 0.0, 0.0, 0.0, 0.0, 0.0, 1.695681162886347E9, 0.0, 2023-09-25 17:32:42.886
224.0, -187500.02235174447, 23959.013695599282, -35998.33381156133, -35579.30565825768, 8194.90947662705, 4080.7803369498656, -187500.02235174447, -91035.30240479737, 1874.394938277595, -5093.448471242007, -19707.980121133343, -46496.05411244084, 20546.863442285474, -22601.94988273977, -26557.806319928924, -18919.611742450208, 0.09, 1.006, -0.06, 192.0, 0.0, 0.0, 0.0, 0.0, 0.0, 0.0, 0.0, 0.0, 0.0, 1.695681162886351E9, 0.0, 2023-09-25 17:32:42.886
226.0, -187500.02235174447, 23975.442227773932, -35961.229915765514, -35529.10364021106, 8154.18459822948, 4094.7725289788877, -187500.02235174447, -91020.55025345687, 1895.0926536432094, -5135.402695584619, -19723.89456318552, -46543.23864498599, 20621.518268766198, -22645.938115827816, -26464.264269383464, -18914.49319296994, 0.09, 1.006, -0.06, 192.0, 0.0, 0.0, 0.0, 0.0, 0.0, 0.0, 0.0, 0.0, 0.0, 1.695681162946465E9, 0.0, 2023-09-25 17:32:42.946
228.0, -187500.02235174447, 23984.360573811602, -35972.003456592975, -35543.252294451275, 8179.1514967860585, 4116.677238545089, -187500.02235174447, -91035.01183211945, 1866.9741591184331, -5085.424194982552, -19718.172516604962, -46490.91321121612, 20538.883869514928, -22610.600007843972, -26550.564354725404, -18928.820661165795, 0.096, 1.008, -0.054, 192.0, 1.5, 0.0, 15.5, 64.0, 127.0, 40.0, 0.0, 0.0, 0.0, 1.695681162946477E9, 0.0, 2023-09-25 17:32:42.946
230.0, -187500.02235174447, 24015.630664304575, -35921.957900757545, -35485.62949724549, 8173.362394972133, 4132.166997452617, -187500.02235174447, -91017.97980284451, 1929.648450571114, -5087.726424661449, -19689.674042424445, -46502.29024914387, 20621.94295191085, -22592.405687857354, -26472.221490409553, -18899.78574511835, 0.096, 1.008, -0.054, 192.0, 0.0, 0.0, 0.0, 0.0, 0.0, 0.0, 0.0, 0.0, 0.0, 1.69568116294648E9, 0.0, 2023-09-25 17:32:42.946
232.0, -187500.02235174447, 24016.18945791596, -35924.68481358109, -35489.25047984725, 8180.693767153474, 4153.937596552086, -187500.02235174447, -91065.32079760084, 1896.4561100549831, -5038.753752559871, -19678.006431818776, -46443.303995526316, 20563.627250626952, -22570.836254457983, -26565.897651421747, -18904.948998087526, 0.096, 1.008, -0.054, 192.0, 0.0, 0.0, 0.0, 0.0, 0.0, 0.0, 0.0, 0.0, 0.0, 1.695681162946483E9, 0.0, 2023-09-25 17:32:42.946
234.0, -187500.02235174447, 23995.759963483808, -35954.70320638457, -35515.424372604415, 8190.461479480444, 4107.9377064630635, -187500.02235174447, -90991.49298566497, 1956.068212517287, -5080.417404224563, -19656.012315274755, -46492.790757750365, 20661.46083610783, -22568.690486990272, -26487.934766761635, -18877.4563524075, 0.096, 1.008, -0.054, 192.0, 0.0, 0.0, 0.0, 0.0, 0.0, 0.0, 0.0, 0.0, 0.0, 1.695681162946487E9, 0.0, 2023-09-25 17:32:42.946
236.0, -187500.02235174447, 23986.595748257132, -35969.61181993625, -35533.50693386876, 8144.618051602609, 4100.33811334826, -187500.02235174447, -91038.29753855438, 1863.1296590721201, -5080.037424568824, -19705.879057154543, -46492.25431588344, 20550.953811520794, -22626.22387721823, -26549.402064013728, -18922.092786084748, 0.096, 1.008, -0.054, 192.0, 0.0, 0.0, 0.0, 0.0, 0.0, 0.0, 0.0, 0.0, 0.0, 1.69568116294649E9, 0.0, 2023-09-25 17:32:42.946
238.0, -187500.02235174447, 24006.399393844535, -35960.11232854275, -35527.29314891018, 8180.2690840088235, 4086.860011441709, -187500.02235174447, -90959.26177016042, 1945.4287821565608, -5076.4611454559745, -19680.55453068668, -46514.49430161647, 20628.492013036255, -22590.818714001027, -26487.778304550448, -18912.749756902427, 0.098, 1.012, -0.054, 192.0, 1.5, 8.0, 15.5, 80.0, 127.0, 40.0, 0.0, 0.0, 0.0, 1.695681162946493E9, 0.0, 2023-09-25 17:32:42.946
240.0, -187500.02235174447, 23986.260472090304, -35947.28242722541, -35523.35924188605, 8138.225452688391, 4104.473186072491, -187500.02235174447, -91022.71837266903, 1866.460068995961, -5090.185116551533, -19695.820772149655, -46485.61584778021, 20535.44170086881, -22640.417234947352, -26539.67905517567, -18927.948943132036, 0.098, 1.012, -0.054, 192.0, 0.0, 0.0, 0.0, 0.0, 0.0, 0.0, 0.0, 0.0, 0.0, 1.695681163006691E9, 0.0, 2023-09-25 17:32:43.006
242.0, -187500.02235174447, 24018.312873639214, -35952.11040402775, -35528.12016345503, 8188.3827672461, 4103.266191871905, -187500.02235174447, -90925.46593254399, 1946.3675554236836, -5102.34446553522, -19661.801417088678, -46500.45740609854, 20599.457096988812, -22608.878923520915, -26483.48676961503, -18897.93055032856, 0.098, 1.012, -0.054, 192.0, 0.0, 0.0, 0.0, 0.0, 0.0, 0.0, 0.0, 0.0, 0.0, 1.695681163006705E9, 0.0, 2023-09-25 17:32:43.006
244.0, -187500.02235174447, 24023.27496090829, -35923.768392058424, -35506.327212611104, 8138.225452688391, 4114.754988521932, -187500.02235174447, -91013.44239872009, 1897.2607728553742, -5075.634130911128, -19677.805266118678, -46464.404042292124, 20539.867346270963, -22623.966351028248, -26526.558581180405, -18913.152088302624, 0.098, 1.012, -0.054, 192.0, 0.0, 0.0, 0.0, 0.0, 0.0, 0.0, 0.0, 0.0, 0.0, 1.695681163006709E9, 0.0, 2023-09-25 17:32:43.006
246.0, -187500.02235174447, 24036.440138392467, -35952.37862496122, -35534.35630015806, 8208.566392489241, 4092.6267615111783, -187500.02235174447, -90894.64287694012, 1968.6969481345354, -5109.318209805276, -19655.431169918917, -46502.6255253107, 20612.063480861605, -22611.829353789017, -26481.72098180306, -18889.995681046927, 0.098, 1.012, -0.054, 192.0, 0.0, 0.0, 0.0, 0.0, 0.0, 0.0, 0.0, 0.0, 0.0, 1.695681163006712E9, 0.0, 2023-09-25 17:32:43.006
248.0, -187500.02235174447, 24040.351693672146, -35914.335955898285, -35497.47592180681, 8157.447952919955, 4124.857977015731, -187500.02235174447, -90993.41523568812, 1926.4745028584605, -5071.47670644244, -19668.685754380913, -46459.240789322954, 20577.73120137825, -22617.171420713836, -26504.43035416965, -18903.60789342021, 0.10400000000000001, 1.016, -0.054, 192.0, 1.5, 32.0, 15.5, 96.0, 127.0, 40.0, 0.0, 0.0, 0.0, 1.695681163006716E9, 0.0, 2023-09-25 17:32:43.006
250.0, -187500.02235174447, 24051.974600788904, -35945.82956383581, -35528.81306753315, 8245.111494673669, 4106.686008773567, -187500.02235174447, -90872.46994644045, 1985.6395704316583, -5088.262866528376, -19640.567259856136, -46482.01721692291, 20630.570725270598, -22602.218103673233, -26476.021286966956, -18874.371811672667, 0.10400000000000001, 1.016, -0.054, 192.0, 0.0, 0.0, 0.0, 0.0, 0.0, 0.0, 0.0, 0.0, 0.0, 1.695681163006719E9, 0.0, 2023-09-25 17:32:43.006
252.0, -187500.02235174447, 24035.99310350336, -35925.73534557049, -35510.819913246625, 8169.316729225723, 4108.541203563357, -187500.02235174447, -90954.92553173608, 1936.130456463153, -5081.669101914061, -19664.975364801332, -46464.73931845895, 20610.74472793874, -22624.43573766181, -26469.80750200838, -18886.55351240081, 0.10400000000000001, 1.016, -0.054, 192.0, 0.0, 0.0, 0.0, 0.0, 0.0, 0.0, 0.0, 0.0, 0.0, 1.695681163006722E9, 0.0, 2023-09-25 17:32:43.006
254.0, -187500.02235174447, 24043.27977219579, -35954.4349854511, -35546.336835186106, 8250.990003465415, 4092.1797266220724, -187500.02235174447, -90835.7907337893, 1970.8650673467002, -5104.646695214116, -19647.429245403917, -46486.15228964714, 20621.719434466297, -22621.462955649255, -26458.922202458645, -18882.239625720933, 0.10400000000000001, 1.016, -0.054, 192.0, 0.0, 0.0, 0.0, 0.0, 0.0, 0.0, 0.0, 0.0, 0.0, 1.695681163006725E9, 0.0, 2023-09-25 17:32:43.006
0.0, -187500.02235174447, 24048.018342020314, -35902.91421448162, -35495.128988639, 8156.03979301927, 4137.732581821988, -187500.02235174447, -90926.44940930002, 1939.8631977871894, -5087.391148494619, -19662.0919897666, -46467.2650655824, 20603.726280179773, -22618.42311840333, -26436.03401613641, -18890.46506768049, 0.10400000000000001, 1.016, -0.054, 192.0, 0.0, 0.0, 0.0, 0.0, 0.0, 0.0, 0.0, 0.0, 0.0, 1.695681163067151E9, 0.0, 2023-09-25 17:32:43.067
2.0, -187500.02235174447, 24048.1748042315, -35961.676950654626, -35555.970437046344, 8234.270898612845, 4106.261325628916, -187500.02235174447, -90814.9365562125, 1964.807744599312, -5085.804174638292, -19640.8354807896, -46466.39334754865, 20601.871085389983, -22600.429964116807, -26456.977600691036, -18875.601157617708, 0.10400000000000001, 1.008, -0.044, 192.0, 1.5, 32.0, 15.5, 64.0, 127.0, 80.0, 0.0, 0.0, 0.0, 1.695681163067162E9, 0.0, 2023-09-25 17:32:43.067
4.0, -187500.02235174447, 24038.965885515918, -35922.89667402466, -35516.58666331609, 8162.700612866952, 4104.987276194964, -187500.02235174447, -90882.88585935663, 1942.8136280552899, -5083.367834492664, -19666.9423183134, -46468.405004549626, 20618.187858842357, -22623.541667883597, -26417.482068238507, -18882.373736187667, 0.10400000000000001, 1.008, -0.044, 192.0, 0.0, 0.0, 0.0, 0.0, 0.0, 0.0, 0.0, 0.0, 0.0, 1.695681163067165E9, 0.0, 2023-09-25 17:32:43.067
6.0, -187500.02235174447, 24036.730711070384, -35958.92768608662, -35560.79841384869, 8238.607137037176, 4096.7841859798655, -187500.02235174447, -90791.82485244572, 1939.840846042734, -5105.227840569954, -19664.975364801332, -46491.38259784968, 20592.013966085193, -22622.75935682766, -26453.021341922446, -18891.962634558993, 0.10400000000000001, 1.008, -0.044, 192.0, 0.0, 0.0, 0.0, 0.0, 0.0, 0.0, 0.0, 0.0, 0.0, 1.695681163067168E9, 0.0, 2023-09-25 17:32:43.067
8.0, -187500.02235174447, 24071.44297020948, -35872.98522865596, -35472.8219476726, 8174.2788164948015, 4151.7247738510105, -187500.02235174447, -90876.06857729776, 1964.6065788992144, -5070.984968064424, -19650.469082649837, -46452.80348691982, 20625.787451957163, -22609.75064155467, -26417.817344405335, -18874.908253539594, 0.10400000000000001, 1.008, -0.044, 192.0, 0.0, 0.0, 0.0, 0.0, 0.0, 0.0, 0.0, 0.0, 0.0, 1.695681163067172E9, 0.0, 2023-09-25 17:32:43.067
10.0, -187500.02235174447, 24021.017434718306, -35983.98399162102, -35595.33185903214, 8230.426398566533, 4072.2866740568493, -187500.02235174447, -90779.17376508401, 1956.6270061286696, -5088.53108746184, -19638.39914064397, -46470.43901329506, 20583.54265493663, -22627.028540018626, -26482.52564460345, -18874.17064597257, 0.10400000000000001, 1.008, -0.044, 192.0, 0.0, 0.0, 0.0, 0.0, 0.0, 0.0, 0.0, 0.0, 0.0, 1.695681163067175E9, 0.0, 2023-09-25 17:32:43.067
12.0, -187500.02235174447, 24040.016417505314, -35914.35830764274, -35514.97733771531, 8150.585967372176, 4111.893965231653, -187500.02235174447, -90808.47690206491, 1939.974956509466, -5117.454244787007, -19675.167760272954, -46505.7771212789, 20612.152887839424, -22649.022656562647, -26395.26443424993, -18891.917931070082, 0.108, 1.006, -0.042, 192.0, 1.5, 48.0, 15.5, 56.0, 127.0, 88.0, 0.0, 0.0, 0.0, 1.695681163067178E9, 0.0, 2023-09-25 17:32:43.067
14.0, -187500.02235174447, 24029.108766211128, -35964.180346033616, -35571.68371339842, 8196.138822572091, 4085.1165753741952, -187500.02235174447, -90764.2204480434, 1935.0352209848431, -5084.306607759787, -19655.65468736347, -46461.610074235214, 20541.34256140501, -22615.830316046515, -26477.295336400908, -18899.11519278469, 0.108, 1.006, -0.042, 192.0, 0.0, 0.0, 0.0, 0.0, 0.0, 0.0, 0.0, 0.0, 0.0, 1.695681163125981E9, 0.0, 2023-09-25 17:32:43.125
16.0, -187500.02235174447, 24041.156356472537, -35914.738287298474, -35517.32427088312, 8160.3760314436, 4098.0135319249075, -187500.02235174447, -90773.58582897019, 1953.9224450495774, -5108.625305727161, -19662.293155466694, -46492.12020541671, 20604.0615563466, -22632.303551710076, -26397.521960439917, -18887.872265323673, 0.108, 1.006, -0.042, 192.0, 0.0, 0.0, 0.0, 0.0, 0.0, 0.0, 0.0, 0.0, 0.0, 1.695681163126006E9, 0.0, 2023-09-25 17:32:43.126
18.0, -187500.02235174447, 24033.75792905783, -35952.7362528725, -35562.58655340511, 8194.149517315569, 4093.7219969894886, -187500.02235174447, -90755.7714886393, 1919.1207789326645, -5093.359064264187, -19662.89665256699, -46465.78985044835, 20529.742006032706, -22633.778766844127, -26481.117484702765, -18908.16764928909, 0.108, 1.006, -0.042, 192.0, 0.0, 0.0, 0.0, 0.0, 0.0, 0.0, 0.0, 0.0, 0.0, 1.69568116312601E9, 0.0, 2023-09-25 17:32:43.126
20.0, -187500.02235174447, 24019.81044051772, -35951.97629356102, -35557.8926870695, 8174.85996185064, 4065.514095486891, -187500.02235174447, -90719.15933122151, 1956.5375991508483, -5118.862404687691, -19657.956917042367, -46501.48558634348, 20618.389024542455, -22639.456109935774, -26393.118666782222, -18892.275558981368, 0.108, 1.006, -0.042, 192.0, 0.0, 0.0, 0.0, 0.0, 0.0, 0.0, 0.0, 0.0, 0.0, 1.695681163126014E9, 0.0, 2023-09-25 17:32:43.126
22.0, -187500.02235174447, 23998.41982107399, -35982.50877648697, -35591.53206247474, 8178.771517130318, 4067.3916420211367, -187500.02235174447, -90712.67732532947, 1894.8244327097457, -5119.82352969927, -19690.523408713747, -46494.86946998471, 20533.564154334566, -22676.716467942773, -26458.85514722528, -18925.669065197595, 0.10200000000000001, 1.008, -0.042, 192.0, 1.5, 24.0, 15.5, 64.0, 127.0, 88.0, 0.0, 0.0, 0.0, 1.695681163126017E9, 0.0, 2023-09-25 17:32:43.126
24.0, -187500.02235174447, 24025.644245820553, -35941.02393877792, -35542.335872928605, 8177.162191529535, 4086.1447556191392, -187500.02235174447, -90662.63176949404, 1945.2946716898289, -5136.788503740848, -19684.8460656221, -46523.837330798786, 20603.614521457497, -22664.87004338146, -26364.106102479233, -18904.680777154063, 0.10200000000000001, 1.008, -0.042, 192.0, 0.0, 0.0, 0.0, 0.0, 0.0, 0.0, 0.0, 0.0, 0.0, 1.695681163126021E9, 0.0, 2023-09-25 17:32:43.126
26.0, -187500.02235174447, 24023.431423119477, -35935.43600266409, -35543.40875666246, 8169.339080970179, 4100.472223814992, -187500.02235174447, -90704.22836592536, 1899.652409512092, -5097.315323032775, -19679.347536486093, -46466.929789415575, 20516.465069826256, -22662.992496847215, -26443.23127785102, -18912.749756902427, 0.10200000000000001, 1.008, -0.042, 192.0, 0.0, 0.0, 0.0, 0.0, 0.0, 0.0, 0.0, 0.0, 0.0, 1.695681163126025E9, 0.0, 2023-09-25 17:32:43.126
28.0, -187500.02235174447, 24052.734560100387, -35920.99677574597, -35519.73825928429, 8190.103851569159, 4104.026151183385, -187500.02235174447, -90634.75914415826, 1979.9622273400103, -5102.567982979773, -19639.807300544657, -46483.291266356864, 20625.206306601325, -22629.889563308905, -26366.676553091595, -18870.370849415165, 0.10200000000000001, 1.008, -0.042, 192.0, 0.0, 0.0, 0.0, 0.0, 0.0, 0.0, 0.0, 0.0, 0.0, 1.695681163126028E9, 0.0, 2023-09-25 17:32:43.126
30.0, -187500.02235174447, 24062.681086382996, -35899.4720458355, -35503.42148583192, 8178.615054919131, 4119.426503113092, -187500.02235174447, -90708.51990086077, 1924.5075493463935, -5067.989834307413, -19651.720780339336, -46441.135876314154, 20551.467901643267, -22633.06351102156, -26442.784242961916, -18883.290157710333, 0.10200000000000001, 1.008, -0.042, 192.0, 0.0, 0.0, 0.0, 0.0, 0.0, 0.0, 0.0, 0.0, 0.0, 1.695681163186125E9, 0.0, 2023-09-25 17:32:43.186
32.0, -187500.02235174447, 24072.00176382086, -35910.35734538524, -35512.67510803641, 8229.062942154758, 4113.682104788078, -187500.02235174447, -90618.35296372807, 2012.3052015668395, -5064.793534850304, -19608.20193388485, -46454.211646820506, 20658.152777928448, -22594.462048347243, -26388.69302138007, -18846.990924714915, 0.096, 1.012, -0.044, 192.0, 1.5, 0.0, 15.5, 80.0, 127.0, 80.0, 0.0, 0.0, 0.0, 1.695681163186135E9, 0.0, 2023-09-25 17:32:43.186
34.0, -187500.02235174447, 24051.66167636653, -35913.285423908885, -35514.17267491492, 8169.4061362035445, 4133.798674797854, -187500.02235174447, -90694.39359836503, 1933.4035436396057, -5065.329976717231, -19651.072579750133, -46438.92305361308, 20580.726335135263, -22623.631074861416, -26438.22448709303, -18863.799436545305, 0.096, 1.012, -0.044, 192.0, 0.0, 0.0, 0.0, 0.0, 0.0, 0.0, 0.0, 0.0, 0.0, 1.695681163186139E9, 0.0, 2023-09-25 17:32:43.186
36.0, -187500.02235174447, 24062.39051370508, -35937.06768000933, -35537.19497170389, 8226.96187817596, 4115.000857710941, -187500.02235174447, -90584.31125692264, 1986.555991954326, -5091.414462496575, -19633.593515586083, -46472.49537378495, 20633.07412064959, -22634.941057555803, -26387.821303346314, -18845.180433414036, 0.096, 1.012, -0.044, 192.0, 0.0, 0.0, 0.0, 0.0, 0.0, 0.0, 0.0, 0.0, 0.0, 1.695681163186143E9, 0.0, 2023-09-25 17:32:43.186
38.0, -187500.02235174447, 24050.164109488025, -35932.5302758849, -35526.84611402108, 8153.625804618097, 4117.750122278943, -187500.02235174447, -90672.7571097323, 1917.5114533318822, -5072.035500053823, -19661.354382199574, -46449.89776014063, 20589.3094050061, -22632.23649647671, -26421.773603173926, -18874.103590739203, 0.096, 1.012, -0.044, 192.0, 0.0, 0.0, 0.0, 0.0, 0.0, 0.0, 0.0, 0.0, 0.0, 1.695681163186146E9, 0.0, 2023-09-25 17:32:43.186
40.0, -187500.02235174447, 24043.61504836262, -35969.92474435863, -35567.593344163106, 8222.223308351435, 4068.799801921821, -187500.02235174447, -90543.31815759161, 1963.3772329541723, -5110.704017961504, -19650.491434394295, -46492.70135077254, 20611.2141145723, -22632.86234532146, -26388.93889056908, -18867.286308680334, 0.096, 1.012, -0.044, 192.0, 0.0, 0.0, 0.0, 0.0, 0.0, 0.0, 0.0, 0.0, 0.0, 1.695681163186161E9, 0.0, 2023-09-25 17:32:43.186
42.0, -187500.02235174447, 24048.264211209324, -35913.17366518661, -35504.76259049924, 8143.947499268949, 4133.686916075578, -187500.02235174447, -90645.66679545246, 1912.7728835073572, -5083.43488972603, -19678.676984152436, -46462.19121959105, 20571.271547230666, -22650.85549960798, -26399.913597096634, -18886.73232635645, 0.098, 1.016, -0.036000000000000004, 192.0, 1.5, 8.0, 15.5, 96.0, 127.0, 112.0, 0.0, 0.0, 0.0, 1.695681163186165E9, 0.0, 2023-09-25 17:32:43.186
44.0, -187500.02235174447, 24049.962943787927, -35956.066662796344, -35547.70029159788, 8217.842366438195, 4109.189404152561, -187500.02235174447, -90528.65541322893, 1962.5055149204154, -5095.05779684279, -19648.546832626682, -46477.25629535393, 20592.21513178529, -22622.245266705188, -26396.51613193943, -18862.525387111353, 0.098, 1.016, -0.036000000000000004, 192.0, 0.0, 0.0, 0.0, 0.0, 0.0, 0.0, 0.0, 0.0, 0.0, 1.695681163246331E9, 0.0, 2023-09-25 17:32:43.246
46.0, -187500.02235174447, 24041.201059961448, -35918.49338036697, -35514.03856444819, 8128.770664783796, 4118.353619379237, -187500.02235174447, -90627.24895802129, 1924.8204737687677, -5078.964540834969, -19661.622603133037, -46454.412812520604, 20566.532977406143, -22643.792348360104, -26398.192512773578, -18881.144390242625, 0.098, 1.016, -0.036000000000000004, 192.0, 0.0, 0.0, 0.0, 0.0, 0.0, 0.0, 0.0, 0.0, 0.0, 1.695681163246366E9, 0.0, 2023-09-25 17:32:43.246
48.0, -187500.02235174447, 24033.869687780105, -35979.40188400768, -35577.42811172344, 8209.952200645472, 4070.0067961224076, -187500.02235174447, -90499.53109020366, 1952.1343054931529, -5109.631134227649, -19650.536137883206, -46489.10271991524, 20576.054820544105, -22649.67085715185, -26404.048669820866, -18881.189093731537, 0.098, 1.016, -0.036000000000000004, 192.0, 0.0, 0.0, 0.0, 0.0, 0.0, 0.0, 0.0, 0.0, 0.0, 1.69568116324637E9, 0.0, 2023-09-25 17:32:43.246
50.0, -187500.02235174447, 24060.490615426377, -35891.71599050951, -35485.38362805649, 8130.759970040318, 4117.928936234586, -187500.02235174447, -90602.79614958717, 1925.1110464466867, -5086.050043827301, -19668.08225728062, -46468.36030106072, 20586.73895439374, -22674.570700475062, -26377.427742174597, -18897.103535783714, 0.098, 1.016, -0.036000000000000004, 192.0, 0.0, 0.0, 0.0, 0.0, 0.0, 0.0, 0.0, 0.0, 0.0, 1.695681163246374E9, 0.0, 2023-09-25 17:32:43.246
52.0, -187500.02235174447, 24047.548955386756, -35967.6895699131, -35566.52046042925, 8212.232078579913, 4089.408110309614, -187500.02235174447, -90501.363933249, 1977.77175638339, -5063.00539529388, -19628.16204168344, -46444.063954837795, 20593.153905052415, -22604.05094671857, -26426.467469509542, -18874.371811672667, 0.106, 1.01, -0.036000000000000004, 192.0, 1.5, 40.0, 15.5, 72.0, 127.0, 112.0, 0.0, 0.0, 0.0, 1.695681163246377E9, 0.0, 2023-09-25 17:32:43.246
54.0, -187500.02235174447, 24063.86572883913, -35895.806359744834, -35485.49538677876, 8136.683182320975, 4127.629593328189, -187500.02235174447, -90573.80593702865, 1929.9613749934883, -5097.203564310499, -19671.680888137926, -46479.84909771074, 20608.621312215488, -22648.083883295523, -26369.2246519595, -18886.575864145263, 0.106, 1.01, -0.036000000000000004, 192.0, 0.0, 0.0, 0.0, 0.0, 0.0, 0.0, 0.0, 0.0, 0.0, 1.69568116324638E9, 0.0, 2023-09-25 17:32:43.246
56.0, -187500.02235174447, 24055.550879901755, -35964.56032568936, -35560.50784117077, 8210.466290767943, 4095.599543523734, -187500.02235174447, -90483.03550279564, 1950.457924659005, -5073.57777042124, -19628.877297506013, -46455.597454976734, 20572.16561700888, -22619.071318992534, -26429.440251522097, -18881.41261117609, 0.106, 1.01, -0.036000000000000004, 192.0, 0.0, 0.0, 0.0, 0.0, 0.0, 0.0, 0.0, 0.0, 0.0, 1.695681163246384E9, 0.0, 2023-09-25 17:32:43.246
58.0, -187500.02235174447, 24073.789903377285, -35903.11538018172, -35482.03086638819, 8137.487845121365, 4118.6218403127, -187500.02235174447, -90531.44938128584, 1944.1100292336978, -5096.756529421393, -19660.348553699085, -46478.44093781006, 20616.60088498603, -22651.079017052536, -26354.763073296916, -18886.665271123085, 0.106, 1.01, -0.036000000000000004, 192.0, 0.0, 0.0, 0.0, 0.0, 0.0, 0.0, 0.0, 0.0, 0.0, 1.695681163246387E9, 0.0, 2023-09-25 17:32:43.246
60.0, -187500.02235174447, 24061.161167760038, -35963.621552422235, -35547.81205032016, 8208.499337255877, 4094.3031423453267, -187500.02235174447, -90466.2046392208, 1948.4686194024825, -5061.150200504088, -19637.46036737685, -46439.90653036911, 20572.79146585363, -22620.546534126584, -26427.920332899135, -18878.26101520789, 0.106, 1.01, -0.036000000000000004, 192.0, 0.0, 0.0, 0.0, 0.0, 0.0, 0.0, 0.0, 0.0, 0.0, 1.695681163306089E9, 0.0, 2023-09-25 17:32:43.306
62.0, -187500.02235174447, 24088.184426806503, -35886.28451660687, -35461.64607544495, 8147.948461526449, 4131.787017796876, -187500.02235174447, -90501.63215418246, 1955.4647154169936, -5092.934381119536, -19657.889861809, -46477.79273722086, 20618.88076292047, -22640.61840064745, -26347.342294137754, -18874.77414307286, 0.114, 1.014, -0.038, 192.0, 1.5, 72.0, 15.5, 88.0, 127.0, 104.0, 0.0, 0.0, 0.0, 1.695681163306099E9, 0.0, 2023-09-25 17:32:43.306
64.0, -187500.02235174447, 24058.121330514114, -35959.21825876454, -35544.8392683076, 8194.57420046022, 4113.950325721541, -187500.02235174447, -90461.17549671835, 1947.0157560128876, -5065.329976717231, -19628.36320738354, -46438.29720476833, 20560.006268025194, -22622.066452749546, -26436.36929230324, -18872.136637227137, 0.114, 1.014, -0.038, 192.0, 0.0, 0.0, 0.0, 0.0, 0.0, 0.0, 0.0, 0.0, 0.0, 1.695681163306103E9, 0.0, 2023-09-25 17:32:43.306
66.0, -187500.02235174447, 24074.371048733123, -35916.19115068807, -35495.95600318384, 8166.835685591184, 4118.711247290522, -187500.02235174447, -90453.30768267009, 1956.425840428572, -5104.892564403125, -19656.213480974853, -46487.71691175901, 20613.337530295557, -22651.995438575203, -26341.419081857097, -18869.2532621924, 0.114, 1.014, -0.038, 192.0, 0.0, 0.0, 0.0, 0.0, 0.0, 0.0, 0.0, 0.0, 0.0, 1.695681163306106E9, 0.0, 2023-09-25 17:32:43.306
68.0, -187500.02235174447, 24053.47216766741, -35960.894639598686, -35549.64489336549, 8195.468270238433, 4095.6218952681897, -187500.02235174447, -90437.43794410682, 1915.9691829644662, -5082.786689136826, -19656.861681564056, -46462.34768180224, 20543.86830852846, -22640.1937175028, -26420.700719440072, -18896.678852639063, 0.114, 1.014, -0.038, 192.0, 0.0, 0.0, 0.0, 0.0, 0.0, 0.0, 0.0, 0.0, 0.0, 1.695681163306109E9, 0.0, 2023-09-25 17:32:43.306
70.0, -187500.02235174447, 24075.242766766878, -35911.474932608005, -35496.98418342879, 8173.0494705497595, 4098.974656936486, -187500.02235174447, -90406.50312978067, 1954.0789072607647, -5114.39205579663, -19658.426303675926, -46501.753807276946, 20612.622274472986, -22651.235479263723, -26328.79034623985, -18886.68762286754, 0.114, 1.014, -0.038, 192.0, 0.0, 0.0, 0.0, 0.0, 0.0, 0.0, 0.0, 0.0, 0.0, 1.695681163306112E9, 0.0, 2023-09-25 17:32:43.306
72.0, -187500.02235174447, 24061.272926482314, -35940.97923528901, -35531.60703559006, 8179.4420694639775, 4104.204965139028, -187500.02235174447, -90433.16876091585, 1929.3131744042844, -5056.925720802035, -19642.333047668108, -46439.168922802084, 20553.68072434434, -22632.683531365816, -26422.80178341887, -18892.521428170377, 0.11, 1.016, -0.04, 192.0, 1.5, 56.0, 15.5, 96.0, 127.0, 96.0, 0.0, 0.0, 0.0, 1.695681163306116E9, 0.0, 2023-09-25 17:32:43.306
74.0, -187500.02235174447, 24089.72669717392, -35895.49343532246, -35481.98616289928, 8182.772479387818, 4128.43425612858, -187500.02235174447, -90391.86273716245, 1977.4141284721052, -5090.833317140737, -19645.909326780955, -46486.4205105806, 20634.32581833909, -22632.348255198987, -26335.74173876545, -18873.097762238714, 0.11, 1.016, -0.04, 192.0, 0.0, 0.0, 0.0, 0.0, 0.0, 0.0, 0.0, 0.0, 0.0, 1.695681163366439E9, 0.0, 2023-09-25 17:32:43.366
76.0, -187500.02235174447, 24040.686969838975, -35948.221200492524, -35541.866486295046, 8169.339080970179, 4100.33811334826, -187500.02235174447, -90430.50890332567, 1923.6134795681812, -5070.761450619871, -19644.679980835914, -46449.27191129588, 20545.92466901835, -22635.969237800746, -26419.270207794933, -18885.54768390032, 0.11, 1.016, -0.04, 192.0, 0.0, 0.0, 0.0, 0.0, 0.0, 0.0, 0.0, 0.0, 0.0, 1.695681163366452E9, 0.0, 2023-09-25 17:32:43.366
78.0, -187500.02235174447, 24063.932784072495, -35919.16393270063, -35500.8286834751, 8190.930866114005, 4111.491633831458, -187500.02235174447, -90349.95321630874, 1962.4384596870495, -5120.404675055108, -19646.22225120333, -46503.8772230002, 20619.193687342846, -22656.24227002171, -26333.998302697935, -18880.920872798073, 0.11, 1.016, -0.04, 192.0, 0.0, 0.0, 0.0, 0.0, 0.0, 0.0, 0.0, 0.0, 0.0, 1.695681163366455E9, 0.0, 2023-09-25 17:32:43.366
80.0, -187500.02235174447, 24052.5780978892, -35925.95886301504, -35503.22032013182, 8169.339080970179, 4125.774398538399, -187500.02235174447, -90419.64595552039, 1918.003191709899, -5070.202657008488, -19646.199899458876, -46444.04160309334, 20550.037389998128, -22636.818604090047, -26407.02145183342, -18887.045250778825, 0.11, 1.016, -0.04, 192.0, 0.0, 0.0, 0.0, 0.0, 0.0, 0.0, 0.0, 0.0, 0.0, 1.695681163366458E9, 0.0, 2023-09-25 17:32:43.366
82.0, -187500.02235174447, 24071.778246376307, -35921.309700168335, -35500.22518637481, 8209.035779122803, 4109.345866363748, -187500.02235174447, -90319.93482350527, 1971.6250266581808, -5101.182174823543, -19630.486623106794, -46484.5206123019, 20609.18010582687, -22624.61455161745, -26342.98370396897, -18863.844140034216, 0.116, 1.008, -0.048, 192.0, 1.5, 80.0, 15.5, 64.0, 127.0, 64.0, 0.0, 0.0, 0.0, 1.695681163366462E9, 0.0, 2023-09-25 17:32:43.366
84.0, -187500.02235174447, 24051.86284206663, -35919.432153634094, -35502.79563698717, 8148.529606882287, 4114.6879332885665, -187500.02235174447, -90404.58087975752, 1916.2150521534745, -5069.956787819479, -19651.497262894783, -46446.88027463917, 20546.081131229537, -22639.120833768946, -26394.75034412746, -18886.709974611997, 0.116, 1.008, -0.048, 192.0, 0.0, 0.0, 0.0, 0.0, 0.0, 0.0, 0.0, 0.0, 0.0, 1.695681163366465E9, 0.0, 2023-09-25 17:32:43.366
86.0, -187500.02235174447, 24050.789958332774, -35957.608933163756, -35532.61286409055, 8201.927924386016, 4084.826002696276, -187500.02235174447, -90277.04182589553, 1960.4938579194377, -5117.767169209382, -19648.8374053046, -46503.96662997802, 20584.146152036927, -22645.848708849993, -26344.861250503214, -18877.50105589641, 0.116, 1.008, -0.048, 192.0, 0.0, 0.0, 0.0, 0.0, 0.0, 0.0, 0.0, 0.0, 0.0, 1.695681163366468E9, 0.0, 2023-09-25 17:32:43.366
88.0, -187500.02235174447, 24066.503234684853, -35891.78304574288, -35468.798633670645, 8146.920281281506, 4144.7957330698655, -187500.02235174447, -90389.00171387216, 1909.4648253279718, -5073.153087276589, -19660.61677463255, -46453.69755669803, 20529.87611649944, -22652.48717695322, -26377.36068694123, -18894.35427121571, 0.116, 1.008, -0.048, 192.0, 0.0, 0.0, 0.0, 0.0, 0.0, 0.0, 0.0, 0.0, 0.0, 1.695681163366471E9, 0.0, 2023-09-25 17:32:43.366
90.0, -187500.02235174447, 24070.794769620272, -35927.456429893544, -35507.02011668922, 8222.558584518265, 4122.756913036932, -187500.02235174447, -90272.10209037091, 1980.2975035068398, -5075.544723933306, -19619.020178201223, -46462.325330057785, 20587.4095067274, -22615.316225924045, -26363.569660612306, -18857.742113797918, 0.116, 1.008, -0.048, 192.0, 0.0, 0.0, 0.0, 0.0, 0.0, 0.0, 0.0, 0.0, 0.0, 1.695681163426699E9, 0.0, 2023-09-25 17:32:43.426
92.0, -187500.02235174447, 24054.14272000107, -35908.43509536208, -35486.43416004589, 8138.448970132944, 4123.33805839277, -187500.02235174447, -90363.07369030401, 1918.5396335768264, -5076.684662900528, -19656.772274586234, -46458.92786490058, 20569.483407674245, -22641.221897747746, -26367.74943682545, -18882.59725363222, 0.114, 1.012, -0.044, 192.0, 1.5, 72.0, 15.5, 80.0, 127.0, 80.0, 0.0, 0.0, 0.0, 1.695681163426714E9, 0.0, 2023-09-25 17:32:43.426
94.0, -187500.02235174447, 24048.1748042315, -35974.1939275496, -35558.920867314446, 8204.028988364815, 4066.028185609363, -187500.02235174447, -90230.9525288287, 1952.6260438711697, -5100.064587600778, -19644.74703606928, -46495.92000197411, 20556.988782523727, -22632.795290088092, -26362.720294323004, -18880.384430931143, 0.114, 1.012, -0.044, 192.0, 0.0, 0.0, 0.0, 0.0, 0.0, 0.0, 0.0, 0.0, 0.0, 1.69568116342672E9, 0.0, 2023-09-25 17:32:43.426
96.0, -187500.02235174447, 24056.28848746878, -35899.58380455778, -35479.147491353455, 8117.192461155947, 4112.832738498776, -187500.02235174447, -90330.70836433272, 1917.556156820793, -5091.794442152315, -19670.540949170703, -46486.53226930288, 20536.2463636692, -22663.05955208058, -26343.609552813716, -18910.134602801158, 0.114, 1.012, -0.044, 192.0, 0.0, 0.0, 0.0, 0.0, 0.0, 0.0, 0.0, 0.0, 0.0, 1.695681163426726E9, 0.0, 2023-09-25 17:32:43.426
98.0, -187500.02235174447, 24026.13598419857, -35950.188154004594, -35541.084175239106, 8209.281648311811, 4090.7492149769328, -187500.02235174447, -90221.76596185756, 1950.457924659005, -5083.501944959396, -19631.380692885006, -46471.48954528446, 20536.53693634712, -22628.794327830594, -26368.46469264802, -18885.815904833784, 0.114, 1.012, -0.044, 192.0, 0.0, 0.0, 0.0, 0.0, 0.0, 0.0, 0.0, 0.0, 0.0, 1.695681163426732E9, 0.0, 2023-09-25 17:32:43.426
100.0, -187500.02235174447, 24008.768678756798, -35898.26505163492, -35477.58286924158, 8138.113693966115, 4119.2029856685385, -187500.02235174447, -90312.24582341264, 1908.4813485719383, -5108.1559190936, -19679.9957370753, -46494.44478684006, 20552.607840610486, -22664.467711981262, -26330.690244518548, -18903.809059120307, 0.114, 1.012, -0.044, 192.0, 0.0, 0.0, 0.0, 0.0, 0.0, 0.0, 0.0, 0.0, 0.0, 1.695681163426738E9, 0.0, 2023-09-25 17:32:43.426
102.0, -187500.02235174447, 23962.612326456587, -35959.240610509, -35546.672111352935, 8218.602325749674, 4092.291485344349, -187500.02235174447, -90214.45694142068, 1919.299592888307, -5112.693323218027, -19666.718800868846, -46495.16004266263, 20540.873174771452, -22632.102386009978, -26379.238233475477, -18898.288178239844, 0.108, 1.012, -0.04, 192.0, 1.5, 48.0, 15.5, 80.0, 127.0, 96.0, 0.0, 0.0, 0.0, 1.695681163426744E9, 0.0, 2023-09-25 17:32:43.426
104.0, -187500.02235174447, 23933.622113898055, -35920.66149957913, -35505.05316317715, 8123.518004836799, 4101.433348826569, -187500.02235174447, -90282.13802363134, 1891.8516506971898, -5145.125704422678, -19701.252246052296, -46524.37377266571, 20574.467846687778, -22668.692191683316, -26325.50463980492, -18905.239570765447, 0.108, 1.012, -0.04, 192.0, 0.0, 0.0, 0.0, 0.0, 0.0, 0.0, 0.0, 0.0, 0.0, 1.695681163486908E9, 0.0, 2023-09-25 17:32:43.486
106.0, -187500.02235174447, 23905.30245367318, -35983.402846265184, -35566.85573659608, 8187.868677123628, 4076.086470614251, -187500.02235174447, -90196.26262143406, 1873.9479033884888, -5155.519265594396, -19701.76633617477, -46536.64488037168, 20524.042311196605, -22676.671764453862, -26383.060381777334, -18917.398919749132, 0.108, 1.012, -0.04, 192.0, 0.0, 0.0, 0.0, 0.0, 0.0, 0.0, 0.0, 0.0, 0.0, 1.695681163486916E9, 0.0, 2023-09-25 17:32:43.486
108.0, -187500.02235174447, 23920.479288158334, -35917.5769588443, -35492.60324151555, 8126.669600804998, 4118.130101934684, -187500.02235174447, -90248.36453775938, 1874.4843452554162, -5159.341413896253, -19712.584580491137, -46541.092877518284, 20562.77788433765, -22659.371514245453, -26317.03332865636, -18915.70018717053, 0.108, 1.012, -0.04, 192.0, 0.0, 0.0, 0.0, 0.0, 0.0, 0.0, 0.0, 0.0, 0.0, 1.695681163486922E9, 0.0, 2023-09-25 17:32:43.486
110.0, -187500.02235174447, 23889.388011621002, -35995.07045687085, -35578.81391987967, 8180.403194475555, 4069.3138920442934, -187500.02235174447, -90181.77869102701, 1859.687490426003, -5152.054745203823, -19708.494211255816, -46532.42040066962, 20508.418441822345, -22648.24034550671, -26394.057440049346, -18925.825527408782, 0.108, 1.012, -0.04, 192.0, 0.0, 0.0, 0.0, 0.0, 0.0, 0.0, 0.0, 0.0, 0.0, 1.695681163486929E9, 0.0, 2023-09-25 17:32:43.486
112.0, -187500.02235174447, 23918.40057592399, -35933.04436600737, -35506.46132307784, 8138.158397455025, 4100.136947648161, -187500.02235174447, -90190.62998183131, 1865.1860195620084, -5184.107146752733, -19730.398920822015, -46568.45141273158, 20564.20839598279, -22685.768924447173, -26300.02365112587, -18925.445547753043, 0.112, 1.01, -0.038, 192.0, 1.5, 64.0, 15.5, 72.0, 127.0, 104.0, 0.0, 0.0, 0.0, 1.695681163486935E9, 0.0, 2023-09-25 17:32:43.486
114.0, -187500.02235174447, 23929.68820687392, -35960.64877040968, -35537.70906182636, 8179.196200274969, 4107.513023318413, -187500.02235174447, -90180.54934508198, 1856.848818880179, -5122.371628567174, -19700.916969885468, -46499.786853764876, 20487.58661599, -22655.43760722132, -26390.570567914318, -18927.121928587192, 0.112, 1.01, -0.038, 192.0, 0.0, 0.0, 0.0, 0.0, 0.0, 0.0, 0.0, 0.0, 0.0, 1.695681163486941E9, 0.0, 2023-09-25 17:32:43.486
116.0, -187500.02235174447, 23938.226573255848, -35924.97538625901, -35500.62751777501, 8127.764836283307, 4115.33613387777, -187500.02235174447, -90165.0819379189, 1897.6631042555696, -5158.201474929032, -19708.829487422645, -46544.55739790886, 20564.476616916254, -22667.19462480481, -26302.124715104666, -18912.369777246688, 0.112, 1.01, -0.038, 192.0, 0.0, 0.0, 0.0, 0.0, 0.0, 0.0, 0.0, 0.0, 0.0, 1.695681163486947E9, 0.0, 2023-09-25 17:32:43.486
118.0, -187500.02235174447, 23936.25961974378, -35956.200773263074, -35536.21149494785, 8153.715211595919, 4110.597564053245, -187500.02235174447, -90183.47742360561, 1861.6320921936147, -5109.854651672203, -19699.061775095677, -46494.91417347362, 20494.694470726787, -22654.655296165383, -26396.94081508408, -18932.329885045277, 0.112, 1.01, -0.038, 192.0, 0.0, 0.0, 0.0, 0.0, 0.0, 0.0, 0.0, 0.0, 0.0, 1.695681163486954E9, 0.0, 2023-09-25 17:32:43.486
120.0, -187500.02235174447, 23946.362608237578, -35942.096822511776, -35512.45159059186, 8161.985357044382, 4091.6656364996, -187500.02235174447, -90134.43769627067, 1905.1509386480975, -5151.674765548082, -19700.89461814101, -46552.984005568505, 20582.402715969412, -22670.63679345093, -26306.48330527345, -18917.42127149359, 0.112, 1.01, -0.038, 192.0, 0.0, 0.0, 0.0, 0.0, 0.0, 0.0, 0.0, 0.0, 0.0, 1.695681163546514E9, 0.0, 2023-09-25 17:32:43.546
122.0, -187500.02235174447, 23919.74168059131, -35977.70315142908, -35555.344588201595, 8151.904720295039, 4101.545107548846, -187500.02235174447, -90161.81858322842, 1850.009185076855, -5125.947907680024, -19708.69537695591, -46513.980211493996, 20495.432078293812, -22669.921537628357, -26383.41800968862, -18943.41635029511, 0.112, 1.012, -0.038, 192.0, 1.5, 64.0, 15.5, 80.0, 127.0, 104.0, 0.0, 0.0, 0.0, 1.695681163546521E9, 0.0, 2023-09-25 17:32:43.546
124.0, -187500.02235174447, 23916.92536078994, -35968.158956546664, -35546.62740786403, 8142.449932390444, 4074.745365946933, -187500.02235174447, -90073.9091722857, 1877.1889063345084, -5181.469640907007, -19724.207487607895, -46585.03640711742, 20550.81970105406, -22680.605671477995, -26288.087819586734, -18935.21326008001, 0.112, 1.012, -0.038, 192.0, 0.0, 0.0, 0.0, 0.0, 0.0, 0.0, 0.0, 0.0, 0.0, 1.695681163546527E9, 0.0, 2023-09-25 17:32:43.546
126.0, -187500.02235174447, 23928.034177784226, -35947.327130714315, -35529.64008207799, 8111.291600619746, 4121.013476969419, -187500.02235174447, -90144.63009174229, 1837.2239872484192, -5120.4270267995635, -19712.651635724502, -46509.59926958076, 20464.67607792331, -22668.44632249431, -26372.55506188334, -18959.71077200303, 0.112, 1.012, -0.038, 192.0, 0.0, 0.0, 0.0, 0.0, 0.0, 0.0, 0.0, 0.0, 0.0, 1.695681163546533E9, 0.0, 2023-09-25 17:32:43.546
128.0, -187500.02235174447, 23936.147861021505, -35962.79453787739, -35537.0385094927, 8147.389667915067, 4095.4430813125473, -187500.02235174447, -90049.38930861824, 1902.6922467580137, -5154.245216160442, -19688.891731368512, -46551.26292124545, 20542.102520716493, -22656.57754618854, -26306.215084339987, -18932.307533300824, 0.112, 1.012, -0.038, 192.0, 0.0, 0.0, 0.0, 0.0, 0.0, 0.0, 0.0, 0.0, 0.0, 1.69568116354654E9, 0.0, 2023-09-25 17:32:43.546
130.0, -187500.02235174447, 23942.78632912473, -35933.84902880777, -35517.57014007213, 8119.695856534941, 4112.38570360967, -187500.02235174447, -90138.72923120609, 1843.8624553516456, -5112.000419139912, -19696.37956576104, -46501.038551454374, 20472.365078015933, -22674.01190686368, -26372.420951416607, -18954.81573996732, 0.112, 1.012, -0.038, 192.0, 0.0, 0.0, 0.0, 0.0, 0.0, 0.0, 0.0, 0.0, 0.0, 1.695681163546546E9, 0.0, 2023-09-25 17:32:43.546
132.0, -187500.02235174447, 23947.949582093905, -35951.21633424954, -35537.865524037545, 8178.257427007846, 4074.544200246835, -187500.02235174447, -90031.57496828736, 1909.6659910280696, -5148.634928302161, -19674.720725383846, -46542.92572056362, 20546.10348297399, -22672.335526029532, -26325.482288060462, -18931.592277478252, 0.106, 1.014, -0.036000000000000004, 192.0, 1.5, 40.0, 15.5, 88.0, 127.0, 112.0, 0.0, 0.0, 0.0, 1.695681163546553E9, 0.0, 2023-09-25 17:32:43.546
134.0, -187500.02235174447, 23934.53853542072, -35937.84999106527, -35524.99091923129, 8113.951458209927, 4114.6879332885665, -187500.02235174447, -90128.38037352328, 1853.3395950006957, -5119.242384343432, -19696.80424890569, -46506.73824629048, 20480.501112997666, -22681.745610445218, -26373.337372939277, -18956.156844634635, 0.106, 1.014, -0.036000000000000004, 192.0, 0.0, 0.0, 0.0, 0.0, 0.0, 0.0, 0.0, 0.0, 0.0, 1.695681163606061E9, 0.0, 2023-09-25 17:32:43.606
136.0, -187500.02235174447, 23958.07492233216, -35942.47680216751, -35525.281491909205, 8175.709328139941, 4120.633497313678, -187500.02235174447, -90016.82281694685, 1905.5085665593824, -5148.411410857608, -19686.76831564526, -46548.96069156655, 20533.40769212338, -22661.427874735342, -26331.9642939525, -18934.877983913182, 0.106, 1.014, -0.036000000000000004, 192.0, 0.0, 0.0, 0.0, 0.0, 0.0, 0.0, 0.0, 0.0, 0.0, 1.695681163606076E9, 0.0, 2023-09-25 17:32:43.606
138.0, -187500.02235174447, 23936.997227310807, -35941.381566689204, -35525.013270975745, 8109.905792463517, 4112.966848965508, -187500.02235174447, -90109.44844596964, 1871.0198248648437, -5106.971276637469, -19688.645862179503, -46503.63135381119, 20496.10263062747, -22663.305421269586, -26358.227593687487, -18941.628210738687, 0.106, 1.014, -0.036000000000000004, 192.0, 0.0, 0.0, 0.0, 0.0, 0.0, 0.0, 0.0, 0.0, 0.0, 1.695681163606082E9, 0.0, 2023-09-25 17:32:43.606
140.0, -187500.02235174447, 23924.59200913811, -35994.310497559374, -35580.33383850263, 8178.637406663586, 4054.874665126165, -187500.02235174447, -89963.53625816539, 1892.8574791976787, -5153.529960337873, -19697.787725661725, -46565.67979641912, 20513.402880835878, -22666.702886426796, -26325.549343293827, -18941.292934571855, 0.106, 1.014, -0.036000000000000004, 192.0, 0.0, 0.0, 0.0, 0.0, 0.0, 0.0, 0.0, 0.0, 0.0, 1.695681163606088E9, 0.0, 2023-09-25 17:32:43.606
142.0, -187500.02235174447, 23932.750395864296, -35931.61385436224, -35517.659547049945, 8081.317911305179, 4100.449872070536, -187500.02235174447, -90067.71773907158, 1841.2249495059193, -5139.761285753404, -19721.391167806527, -46541.27169147393, 20477.61773796293, -22707.78539273565, -26320.833125213758, -18967.489179073476, 0.1, 1.014, -0.032, 192.0, 1.5, 16.0, 15.5, 88.0, 127.5, 0.0, 0.0, 0.0, 0.0, 1.695681163606094E9, 0.0, 2023-09-25 17:32:43.606
144.0, -187500.02235174447, 23959.617192699578, -35954.16676451764, -35543.90049504048, 8169.674357137008, 4109.278811130383, -187500.02235174447, -89957.54599065137, 1904.010999680877, -5116.7836924533485, -19672.55260617168, -46524.79845581036, 20496.974348661228, -22662.791331147117, -26337.239305643954, -18945.18213810708, 0.1, 1.014, -0.032, 192.0, 0.0, 0.0, 0.0, 0.0, 0.0, 0.0, 0.0, 0.0, 0.0, 1.6956811636061E9, 0.0, 2023-09-25 17:32:43.606
146.0, -187500.02235174447, 23944.306247747692, -35924.327185669805, -35516.11727668253, 8087.1740683524695, 4098.371159836192, -187500.02235174447, -90043.84607599331, 1871.7574324318687, -5116.470768030974, -19691.193961047407, -46520.126941219205, 20500.68473824081, -22683.667860468373, -26314.97696816647, -18945.450359040544, 0.1, 1.014, -0.032, 192.0, 0.0, 0.0, 0.0, 0.0, 0.0, 0.0, 0.0, 0.0, 0.0, 1.695681163606106E9, 0.0, 2023-09-25 17:32:43.606
148.0, -187500.02235174447, 23935.901991832496, -35978.21724155155, -35573.60596342158, 8171.28368273779, 4075.795897936332, -187500.02235174447, -89932.95907175053, 1889.7058832294804, -5128.674820503571, -19681.113324298065, -46536.51076990495, 20493.4874765262, -22682.52792150115, -26342.536669079862, -18949.071341642302, 0.1, 1.014, -0.032, 192.0, 0.0, 0.0, 0.0, 0.0, 0.0, 0.0, 0.0, 0.0, 0.0, 1.695681163606112E9, 0.0, 2023-09-25 17:32:43.606
150.0, -187500.02235174447, 23929.35293070709, -35935.927741042105, -35525.214436675844, 8095.086585889649, 4091.4644707995026, -187500.02235174447, -90002.89768015119, 1866.2141998069526, -5133.525149050373, -19706.90723739949, -46545.295005475884, 20516.97915994873, -22695.558988518595, -26294.569825478775, -18958.50377780244, 0.1, 1.014, -0.032, 192.0, 0.0, 0.0, 0.0, 0.0, 0.0, 0.0, 0.0, 0.0, 0.0, 1.695681163666423E9, 0.0, 2023-09-25 17:32:43.666
152.0, -187500.02235174447, 23915.807773567176, -35995.65160222669, -35591.24148979682, 8162.611205889131, 4062.1166303296845, -187500.02235174447, -89900.88431845717, 1867.0188626073436, -5134.598032784228, -19690.322243013652, -46540.0870490178, 20476.835426906997, -22676.492950498217, -26341.195564412545, -18960.850710970248, 0.10200000000000001, 1.016, -0.036000000000000004, 192.0, 1.5, 24.0, 15.5, 96.0, 127.0, 112.0, 0.0, 0.0, 0.0, 1.695681163666433E9, 0.0, 2023-09-25 17:32:43.666
154.0, -187500.02235174447, 23934.06914878716, -35923.768392058424, -35510.194064401876, 8094.438385300445, 4100.204002881527, -187500.02235174447, -89956.92014180662, 1859.8216008927348, -5151.49595159244, -19718.217220093873, -46557.3425957373, 20506.45148831028, -22714.803840494616, -26276.196691536512, -18972.071286686813, 0.10200000000000001, 1.016, -0.036000000000000004, 192.0, 0.0, 0.0, 0.0, 0.0, 0.0, 0.0, 0.0, 0.0, 0.0, 1.695681163666437E9, 0.0, 2023-09-25 17:32:43.666
156.0, -187500.02235174447, 23914.958407277874, -35990.68951495761, -35586.01118159428, 8151.703554594941, 4073.717185701989, -187500.02235174447, -89887.18269910607, 1875.1548975890755, -5123.466864045485, -19695.865475638566, -46523.52440637641, 20456.987077830683, -22672.49198824072, -26351.74558779545, -18966.304536617343, 0.10200000000000001, 1.016, -0.036000000000000004, 192.0, 0.0, 0.0, 0.0, 0.0, 0.0, 0.0, 0.0, 0.0, 0.0, 1.69568116366644E9, 0.0, 2023-09-25 17:32:43.666
158.0, -187500.02235174447, 23936.371378466058, -35923.4778193805, -35506.66248877794, 8075.417050768978, 4097.968828435997, -187500.02235174447, -89917.3799058652, 1863.5990457056816, -5154.78165802737, -19727.67200799847, -46565.12100280774, 20498.270749839634, -22711.428727081864, -26268.30652574379, -18966.863330228727, 0.10200000000000001, 1.016, -0.036000000000000004, 192.0, 0.0, 0.0, 0.0, 0.0, 0.0, 0.0, 0.0, 0.0, 0.0, 1.695681163666443E9, 0.0, 2023-09-25 17:32:43.666
160.0, -187500.02235174447, 23925.217857982858, -35983.84988115429, -35569.98498081982, 8139.5889091001645, 4079.7745084493768, -187500.02235174447, -89869.56952447529, 1863.1967143054862, -5110.815776683781, -19690.99279534731, -46512.48264461549, 20443.5760311575, -22668.82630215005, -26353.39961688514, -18963.108237160235, 0.10200000000000001, 1.016, -0.036000000000000004, 192.0, 0.0, 0.0, 0.0, 0.0, 0.0, 0.0, 0.0, 0.0, 0.0, 1.695681163666446E9, 0.0, 2023-09-25 17:32:43.666
162.0, -187500.02235174447, 23925.329616705134, -35954.47968894002, -35531.60703559006, 8096.830021957162, 4071.7502321899215, -187500.02235174447, -89853.05158532281, 1875.0207871223436, -5157.150942939633, -19713.23278108034, -46567.46793597555, 20507.122040643935, -22702.957415933302, -26259.34347621721, -18961.23069062599, 0.10200000000000001, 1.014, -0.036000000000000004, 192.0, 1.5, 24.0, 15.5, 88.0, 127.0, 112.0, 0.0, 0.0, 0.0, 1.69568116366645E9, 0.0, 2023-09-25 17:32:43.666
164.0, -187500.02235174447, 23927.58714289512, -35955.17259301813, -35545.286303196706, 8129.955307239928, 4081.316778816793, -187500.02235174447, -89849.1623817876, 1839.9732518164221, -5126.931384436058, -19714.059795625188, -46530.20757796855, 20416.686882577764, -22700.118744387477, -26343.386035369163, -18981.257853657946, 0.10200000000000001, 1.014, -0.036000000000000004, 192.0, 0.0, 0.0, 0.0, 0.0, 0.0, 0.0, 0.0, 0.0, 0.0, 1.695681163726728E9, 0.0, 2023-09-25 17:32:43.726
166.0, -187500.02235174447, 23926.134279505528, -35942.38739518969, -35528.03075647721, 8105.882478461562, 4083.6860637290556, -187500.02235174447, -89820.44039016252, 1898.9148019450668, -5143.069343932789, -19698.145353573007, -46549.11715377774, 20508.597255777986, -22684.852502924503, -26266.42897920954, -18953.027600410893, 0.10200000000000001, 1.014, -0.036000000000000004, 192.0, 0.0, 0.0, 0.0, 0.0, 0.0, 0.0, 0.0, 0.0, 0.0, 1.695681163726739E9, 0.0, 2023-09-25 17:32:43.726
168.0, -187500.02235174447, 23911.404479909477, -35975.8926601282, -35567.74980637429, 8115.046693688238, 4071.6384734676453, -187500.02235174447, -89826.67652686556, 1839.3250512272182, -5126.283183846854, -19715.736176459333, -46530.81107506884, 20452.67319115081, -22686.037145380637, -26340.703826034525, -18978.46388560103, 0.10200000000000001, 1.014, -0.036000000000000004, 192.0, 0.0, 0.0, 0.0, 0.0, 0.0, 0.0, 0.0, 0.0, 0.0, 1.695681163726743E9, 0.0, 2023-09-25 17:32:43.726
170.0, -187500.02235174447, 23949.53655595023, -35920.840313534776, -35511.46811383583, 8121.126368180081, 4091.643284755145, -187500.02235174447, -89785.37050311215, 1905.6650287705695, -5130.462960059996, -19694.70318492689, -46538.790647839385, 20534.16765143486, -22671.977898118246, -26257.465929682963, -18952.51351028842, 0.10200000000000001, 1.014, -0.036000000000000004, 192.0, 0.0, 0.0, 0.0, 0.0, 0.0, 0.0, 0.0, 0.0, 0.0, 1.695681163726746E9, 0.0, 2023-09-25 17:32:43.726
172.0, -187500.02235174447, 23908.275235685735, -35972.96458160455, -35571.37078897605, 8113.325609365179, 4067.0116623653967, -187500.02235174447, -89810.33740166872, 1853.429001978517, -5119.398846554619, -19699.75467917379, -46513.04143822687, 20439.61977238891, -22701.43749731034, -26339.385073111665, -18967.735048262482, 0.10400000000000001, 1.014, -0.04, 192.0, 1.5, 32.0, 15.5, 88.0, 127.0, 96.0, 0.0, 0.0, 0.0, 1.695681163726749E9, 0.0, 2023-09-25 17:32:43.726
174.0, -187500.02235174447, 23959.527785721755, -35906.1775691721, -35504.874349221514, 8139.074818977692, 4094.90663944562, -187500.02235174447, -89751.19468583998, 1904.7486072479019, -5148.187893413055, -19700.671100696458, -46549.005395055465, 20516.599180292986, -22687.199436092313, -26255.901307571094, -18949.02663815339, 0.10400000000000001, 1.014, -0.04, 192.0, 0.0, 0.0, 0.0, 0.0, 0.0, 0.0, 0.0, 0.0, 0.0, 1.695681163726752E9, 0.0, 2023-09-25 17:32:43.726
176.0, -187500.02235174447, 23929.15176500699, -35934.72074684152, -35533.61869259104, 8122.221603658391, 4105.367255850703, -187500.02235174447, -89814.6959918375, 1875.8030981782792, -5095.1025003317, -19689.025841835242, -46492.18726065008, 20458.81992087602, -22672.91667138537, -26334.758262009414, -18949.004286408937, 0.10400000000000001, 1.014, -0.04, 192.0, 0.0, 0.0, 0.0, 0.0, 0.0, 0.0, 0.0, 0.0, 0.0, 1.695681163726756E9, 0.0, 2023-09-25 17:32:43.726
178.0, -187500.02235174447, 23939.5006226898, -35948.95880805955, -35549.533134643214, 8165.293415223768, 4087.5529155198237, -187500.02235174447, -89706.58060390719, 1932.3083081612956, -5132.854596716714, -19683.21438827686, -46538.14244725018, 20529.67495079934, -22660.712618912774, -26264.305563486287, -18920.818736650795, 0.10400000000000001, 1.014, -0.04, 192.0, 0.0, 0.0, 0.0, 0.0, 0.0, 0.0, 0.0, 0.0, 0.0, 1.695681163726759E9, 0.0, 2023-09-25 17:32:43.726
180.0, -187500.02235174447, 23915.15957297797, -35955.75373837397, -35555.076367268135, 8104.1390423940475, 4085.250685840927, -187500.02235174447, -89773.9934651844, 1846.0976297971763, -5135.022715928879, -19720.161821861486, -46528.91117679014, 20474.44379025028, -22720.77175626418, -26307.91381691859, -18952.669972499607, 0.10400000000000001, 1.014, -0.04, 192.0, 0.0, 0.0, 0.0, 0.0, 0.0, 0.0, 0.0, 0.0, 0.0, 1.695681163786948E9, 0.0, 2023-09-25 17:32:43.786
182.0, -187500.02235174447, 23934.06914878716, -35957.56422967485, -35552.32710270013, 8161.650080877553, 4076.8464299257316, -187500.02235174447, -89656.80326900522, 1900.971162434955, -5148.612576557705, -19705.364967032074, -46553.54279917989, 20507.34555808849, -22685.277186069154, -26260.28224948433, -18935.302667057833, 0.1, 1.02, -0.036000000000000004, 192.0, 1.5, 16.0, 15.5, 112.0, 127.0, 112.0, 0.0, 0.0, 0.0, 1.69568116378696E9, 0.0, 2023-09-25 17:32:43.786
184.0, -187500.02235174447, 23930.671683629953, -35919.476857123, -35525.907340753954, 8105.301333105724, 4096.091281901751, -187500.02235174447, -89762.19174411199, 1855.038327579299, -5114.079131374256, -19712.09284211312, -46502.24554565496, 20452.449673706255, -22692.854427439503, -26303.68933721654, -18944.980972406982, 0.1, 1.02, -0.036000000000000004, 192.0, 0.0, 0.0, 0.0, 0.0, 0.0, 0.0, 0.0, 0.0, 0.0, 1.695681163786965E9, 0.0, 2023-09-25 17:32:43.786
186.0, -187500.02235174447, 23928.145936506506, -35965.700264656574, -35577.80809137918, 8177.229246762901, 4061.580188462757, -187500.02235174447, -89632.05988789319, 1907.430816582539, -5143.069343932789, -19691.48453372533, -46539.37179319523, 20496.929645172317, -22659.10329331199, -26278.96830784897, -18918.74002441645, 0.1, 1.02, -0.036000000000000004, 192.0, 0.0, 0.0, 0.0, 0.0, 0.0, 0.0, 0.0, 0.0, 0.0, 1.69568116378697E9, 0.0, 2023-09-25 17:32:43.786
188.0, -187500.02235174447, 23908.58816010811, -35940.77806958891, -35556.01514053525, 8093.007873655305, 4081.3614823057037, -187500.02235174447, -89718.80700812423, 1833.9606325579446, -5151.54065508135, -19734.221069123872, -46545.04913628687, 20448.359304470934, -22714.82619223907, -26277.135464803632, -18949.51837653141, 0.1, 1.02, -0.036000000000000004, 192.0, 0.0, 0.0, 0.0, 0.0, 0.0, 0.0, 0.0, 0.0, 0.0, 1.695681163786975E9, 0.0, 2023-09-25 17:32:43.786
190.0, -187500.02235174447, 23899.267482670246, -36003.944099419605, -35620.209350610894, 8158.274967464801, 4056.6628046825895, -187500.02235174447, -89584.47302394784, 1880.22874358043, -5151.294785892343, -19706.303740299194, -46554.48157244702, 20470.822807648517, -22690.865122182982, -26272.173377534556, -18935.056797868827, 0.1, 1.02, -0.036000000000000004, 192.0, 0.0, 0.0, 0.0, 0.0, 0.0, 0.0, 0.0, 0.0, 0.0, 1.69568116378698E9, 0.0, 2023-09-25 17:32:43.786
192.0, -187500.02235174447, 23917.707671845874, -35929.06575549433, -35542.02294850623, 8076.333472291645, 4092.38089232217, -187500.02235174447, -89685.45820539692, 1820.1919579734754, -5160.436649374563, -19753.175348421973, -46559.555418438365, 20450.058037049537, -22731.031206969168, -26250.849813324192, -18963.3764580937, 0.10400000000000001, 1.012, -0.038, 192.0, 1.5, 32.0, 15.5, 80.0, 127.0, 104.0, 0.0, 0.0, 0.0, 1.695681163786985E9, 0.0, 2023-09-25 17:32:43.786
194.0, -187500.02235174447, 23921.574523636642, -35973.769244404946, -35596.404742766, 8177.47511595191, 4060.350842517715, -187500.02235174447, -89566.16694523895, 1889.7282349739355, -5130.999401926923, -19698.48062973984, -46541.56226415185, 20463.446731978267, -22676.850578409503, -26277.269575270366, -18942.857556683728, 0.10400000000000001, 1.012, -0.038, 192.0, 0.0, 0.0, 0.0, 0.0, 0.0, 0.0, 0.0, 0.0, 0.0, 1.695681163846391E9, 0.0, 2023-09-25 17:32:43.846
196.0, -187500.02235174447, 23899.312186159157, -35933.3796421742, -35546.89562879749, 8095.55597252321, 4072.063156612296, -187500.02235174447, -89638.43013506295, 1843.7283448849137, -5157.799143528837, -19723.872211441067, -46544.110363019754, 20474.44379025028, -22706.623102023972, -26232.81195554876, -18944.645696240153, 0.10400000000000001, 1.012, -0.038, 192.0, 0.0, 0.0, 0.0, 0.0, 0.0, 0.0, 0.0, 0.0, 0.0, 1.695681163846406E9, 0.0, 2023-09-25 17:32:43.846
198.0, -187500.02235174447, 23888.337479631602, -35978.55251771838, -35605.65836497049, 8162.499447166854, 4044.3022899988046, -187500.02235174447, -89528.97364246532, 1855.395955490584, -5163.700004065037, -19713.52335375826, -46553.25222650197, 20447.062903292528, -22696.006023407703, -26270.00525832239, -18945.875042185195, 0.10400000000000001, 1.012, -0.038, 192.0, 0.0, 0.0, 0.0, 0.0, 0.0, 0.0, 0.0, 0.0, 0.0, 1.695681163846411E9, 0.0, 2023-09-25 17:32:43.846
200.0, -187500.02235174447, 23885.476456341323, -35924.036612991884, -35543.07348049563, 8088.448117786422, 4076.37704329217, -187500.02235174447, -89594.03957057472, 1852.3114147557517, -5166.628082588682, -19722.70992072939, -46550.99470031199, 20478.10947634095, -22717.463698084797, -26220.09381295369, -18947.573774763798, 0.10400000000000001, 1.012, -0.038, 192.0, 0.0, 0.0, 0.0, 0.0, 0.0, 0.0, 0.0, 0.0, 0.0, 1.695681163846416E9, 0.0, 2023-09-25 17:32:43.846
202.0, -187500.02235174447, 23882.16839816194, -35958.8382791088, -35584.87124262706, 8169.652005392552, 4067.4139937655923, -187500.02235174447, -89519.51885456072, 1860.492153226394, -5157.754440039926, -19703.286254797727, -46540.39997344017, 20436.892859565363, -22699.470543798274, -26273.223909523957, -18944.578641006785, 0.10200000000000001, 1.012, -0.034, 192.0, 1.5, 24.0, 15.5, 80.0, 127.0, 120.0, 0.0, 0.0, 0.0, 1.695681163846421E9, 0.0, 2023-09-25 17:32:43.846
204.0, -187500.02235174447, 23895.937072746405, -35883.24467936095, -35507.62361378952, 8121.439292602456, 4101.0086656819185, -187500.02235174447, -89582.5954774136, 1876.1830778340195, -5160.436649374563, -19708.38245253354, -46541.15993275165, 20489.77708694662, -22699.62700600946, -26215.019966962336, -18926.049044853335, 0.10200000000000001, 1.012, -0.034, 192.0, 0.0, 0.0, 0.0, 0.0, 0.0, 0.0, 0.0, 0.0, 0.0, 1.695681163846426E9, 0.0, 2023-09-25 17:32:43.846
206.0, -187500.02235174447, 23859.839005451086, -35953.22799125052, -35590.7497514188, 8175.3964037175665, 4075.035938624852, -187500.02235174447, -89521.73167726179, 1873.2773510548295, -5149.573701569284, -19684.13080979953, -46520.70808657505, 20450.125092282902, -22691.87095068347, -26294.72628768996, -18917.93536161606, 0.10200000000000001, 1.012, -0.034, 192.0, 0.0, 0.0, 0.0, 0.0, 0.0, 0.0, 0.0, 0.0, 0.0, 1.695681163846432E9, 0.0, 2023-09-25 17:32:43.846
208.0, -187500.02235174447, 23857.53677577219, -35913.5759965868, -35538.24550369329, 8124.188557170458, 4084.3566160627147, -187500.02235174447, -89539.5907210816, 1879.0217493798436, -5188.488088665973, -19710.23764732333, -46562.61760742874, 20511.57003779054, -22725.756195277714, -26210.504914582365, -18917.60008544923, 0.10200000000000001, 1.012, -0.034, 192.0, 0.0, 0.0, 0.0, 0.0, 0.0, 0.0, 0.0, 0.0, 0.0, 1.695681163846437E9, 0.0, 2023-09-25 17:32:43.846
210.0, -187500.02235174447, 23808.47469669279, -35968.583639691315, -35612.54270226273, 8166.90274082455, 4036.7697521173664, -187500.02235174447, -89504.96786892031, 1844.9353390855003, -5184.375367686197, -19704.917932142966, -46539.30473796186, 20434.590629886465, -22710.266436370188, -26291.217063810476, -18929.804137921827, 0.10200000000000001, 1.012, -0.034, 192.0, 0.0, 0.0, 0.0, 0.0, 0.0, 0.0, 0.0, 0.0, 0.0, 1.695681163906175E9, 0.0, 2023-09-25 17:32:43.906
212.0, -187500.02235174447, 23822.623350932998, -35886.15040614014, -35519.15711392845, 8131.698743307441, 4105.411959339614, -187500.02235174447, -89516.76958999272, 1866.4824207404163, -5228.944746130079, -19729.974237677365, -46586.243401318, 20501.847028952485, -22732.417015125397, -26202.32417611172, -18926.205507064522, 0.092, 1.008, -0.034, 192.0, 1.0, 112.0, 15.5, 64.0, 127.0, 120.0, 0.0, 0.0, 0.0, 1.695681163906189E9, 0.0, 2023-09-25 17:32:43.906
214.0, -187500.02235174447, 23760.329039136057, -35958.45829945306, -35603.28908005823, 8158.163208742525, 4077.9193136595864, -187500.02235174447, -89515.31672660312, 1849.5845019322041, -5190.544449155861, -19703.733289686836, -46533.560339636846, 20436.021141531604, -22705.907846201404, -26306.282139573355, -18921.399882006634, 0.092, 1.008, -0.034, 192.0, 0.0, 0.0, 0.0, 0.0, 0.0, 0.0, 0.0, 0.0, 0.0, 1.695681163906195E9, 0.0, 2023-09-25 17:32:43.906
216.0, -187500.02235174447, 23757.155091423403, -35918.78395304489, -35551.54479164419, 8140.192406200458, 4077.6287409816673, -187500.02235174447, -89474.50244122773, 1861.296816026785, -5270.161362905666, -19739.406673837504, -46612.909032453186, 20513.045252924592, -22738.362579150507, -26207.062745936248, -18919.45528023902, 0.092, 1.008, -0.034, 192.0, 0.0, 0.0, 0.0, 0.0, 0.0, 0.0, 0.0, 0.0, 0.0, 1.695681163906201E9, 0.0, 2023-09-25 17:32:43.906
218.0, -187500.02235174447, 23757.468015845778, -35930.16099097264, -35568.46506219686, 8156.509179652832, 4087.575267264279, -187500.02235174447, -89517.59660453757, 1822.2483184633636, -5215.623106434716, -19724.162784118984, -46544.31152871985, 20437.876336321395, -22723.968055721292, -26299.867188914683, -18927.21133556501, 0.092, 1.008, -0.034, 192.0, 0.0, 0.0, 0.0, 0.0, 0.0, 0.0, 0.0, 0.0, 0.0, 1.695681163906207E9, 0.0, 2023-09-25 17:32:43.906
220.0, -187500.02235174447, 23771.393152641434, -35935.30189219736, -35571.72841688734, 8158.923168054005, 4060.1720285620727, -187500.02235174447, -89444.79697284663, 1885.2578860828742, -5242.042868380889, -19706.191981576918, -46583.337674538816, 20500.4388690518, -22718.78245100766, -26221.166696687545, -18900.836277107748, 0.092, 1.008, -0.034, 192.0, 0.0, 0.0, 0.0, 0.0, 0.0, 0.0, 0.0, 0.0, 0.0, 1.695681163906213E9, 0.0, 2023-09-25 17:32:43.906
222.0, -187500.02235174447, 23785.742972581742, -35940.48749691099, -35576.735207645324, 8134.671525319997, 4070.5879414782457, -187500.02235174447, -89489.70162745734, 1816.9509550274558, -5225.055542594855, -19735.182194135454, -46568.63022668722, 20420.218458201703, -22758.36739043801, -26286.165569563578, -18946.210318352023, 0.09, 1.01, -0.034, 192.0, 1.0, 104.0, 15.5, 72.0, 127.0, 120.0, 0.0, 0.0, 0.0, 1.695681163906219E9, 0.0, 2023-09-25 17:32:43.906
224.0, -187500.02235174447, 23857.894403683473, -35903.137731926174, -35532.07642222362, 8183.040700321281, 4090.5256975323796, -187500.02235174447, -89412.81162653108, 1902.4687293134607, -5199.261629493431, -19694.725536671347, -46563.57873244032, 20512.19588663529, -22709.97586369227, -26218.551542586272, -18920.863440139707, 0.09, 1.01, -0.034, 192.0, 0.0, 0.0, 0.0, 0.0, 0.0, 0.0, 0.0, 0.0, 0.0, 1.69568116396648E9, 0.0, 2023-09-25 17:32:43.966
226.0, -187500.02235174447, 23885.118828430037, -35895.471083578006, -35530.042413478186, 8149.691897593963, 4105.009627939418, -187500.02235174447, -89498.1729386059, 1877.2783133123296, -5124.91972743508, -19684.04140282171, -46486.12993790268, 20447.04055154807, -22689.434610537843, -26292.468761499975, -18927.70307394303, 0.09, 1.01, -0.034, 192.0, 0.0, 0.0, 0.0, 0.0, 0.0, 0.0, 0.0, 0.0, 0.0, 1.695681163966496E9, 0.0, 2023-09-25 17:32:43.966
228.0, -187500.02235174447, 23892.740773289297, -35941.44862192257, -35571.639009909515, 8185.47704046691, 4059.3003105283155, -187500.02235174447, -89367.90697192037, 1930.1848924380413, -5164.124687209688, -19676.50886494027, -46546.52435142092, 20491.207598591758, -22700.051689154112, -26226.173487445532, -18921.422233751087, 0.09, 1.01, -0.034, 192.0, 0.0, 0.0, 0.0, 0.0, 0.0, 0.0, 0.0, 0.0, 0.0, 1.695681163966502E9, 0.0, 2023-09-25 17:32:43.966
230.0, -187500.02235174447, 23924.279084715738, -35894.398199844145, -35517.61484356104, 8136.951403254438, 4108.831776241276, -187500.02235174447, -89466.65697892391, 1861.6767956825252, -5124.763265223893, -19704.09091759812, -46504.77129277841, 20426.56635362701, -22726.113823189, -26269.200595522, -18962.41533308212, 0.09, 1.01, -0.034, 192.0, 0.0, 0.0, 0.0, 0.0, 0.0, 0.0, 0.0, 0.0, 0.0, 1.695681163966507E9, 0.0, 2023-09-25 17:32:43.966
232.0, -187500.02235174447, 23914.533724133224, -35968.717750158045, -35592.51553923077, 8193.434261493, 4049.8902261126314, -187500.02235174447, -89320.07423878602, 1937.6280233416587, -5134.665088017594, -19670.540949170703, -46531.34751693577, 20481.082258353505, -22691.267453583176, -26230.979112503424, -18936.55436474733, 0.09, 1.012, -0.036000000000000004, 192.0, 1.0, 104.0, 15.5, 80.0, 127.0, 112.0, 0.0, 0.0, 0.0, 1.695681163966512E9, 0.0, 2023-09-25 17:32:43.966
234.0, -187500.02235174447, 23938.27127674476, -35913.53129309789, -35529.41656463344, 8124.948516481939, 4082.7025869730223, -187500.02235174447, -89418.86894927848, 1856.5805979467152, -5124.316230334786, -19717.099632871108, -46523.05501974285, 20414.36230115441, -22738.228468683777, -26244.926601043535, -18977.65922280064, 0.09, 1.012, -0.036000000000000004, 192.0, 0.0, 0.0, 0.0, 0.0, 0.0, 0.0, 0.0, 0.0, 0.0, 1.695681163966517E9, 0.0, 2023-09-25 17:32:43.966
236.0, -187500.02235174447, 23947.21197452688, -35953.80913660635, -35584.44655948241, 8203.62665696462, 4056.9980808494192, -187500.02235174447, -89287.46304362573, 1935.9516425075105, -5113.319172062776, -19668.998678803287, -46526.02780175541, 20454.327220240502, -22705.438459567842, -26234.980074760926, -18950.188928865067, 0.09, 1.012, -0.036000000000000004, 192.0, 0.0, 0.0, 0.0, 0.0, 0.0, 0.0, 0.0, 0.0, 0.0, 1.695681163966522E9, 0.0, 2023-09-25 17:32:43.966
238.0, -187500.02235174447, 23946.69788440441, -35919.2756914229, -35547.56618113115, 8101.233315614858, 4060.0826215842512, -187500.02235174447, -89373.65137024538, 1875.2219528224414, -5122.416332056086, -19708.56126648918, -46531.61573786924, 20429.069749006005, -22729.77950927967, -26227.693406068494, -18977.18983616708, 0.09, 1.012, -0.036000000000000004, 192.0, 0.0, 0.0, 0.0, 0.0, 0.0, 0.0, 0.0, 0.0, 0.0, 1.695681163966528E9, 0.0, 2023-09-25 17:32:43.966
240.0, -187500.02235174447, 23976.626870230066, -35950.188154004594, -35578.16571929046, 8179.28560725279, 4059.2332552949497, -187500.02235174447, -89250.98499667467, 1930.1848924380413, -5104.601991725206, -19675.83831260661, -46526.25131919996, 20439.731531111185, -22706.287825857144, -26231.96258925946, -18968.651469785153, 0.09, 1.012, -0.036000000000000004, 192.0, 0.0, 0.0, 0.0, 0.0, 0.0, 0.0, 0.0, 0.0, 0.0, 1.695681164027662E9, 0.0, 2023-09-25 17:32:44.027
242.0, -187500.02235174447, 23985.969899412383, -35901.751923769945, -35522.9345587414, 8103.110862149104, 4086.5917905082456, -187500.02235174447, -89340.25786402916, 1898.6018775226926, -5091.570924707762, -19684.734306899823, -46510.94037424808, 20435.3729409424, -22727.58903832305, -26211.778964016317, -18973.166522165124, 0.098, 1.012, -0.044, 192.0, 1.5, 8.0, 15.5, 80.0, 127.0, 80.0, 0.0, 0.0, 0.0, 1.695681164027681E9, 0.0, 2023-09-25 17:32:44.027
244.0, -187500.02235174447, 23974.59286148463, -35969.433005980616, -35596.22592881035, 8188.874505624117, 4048.415010978581, -187500.02235174447, -89217.21151080269, 1928.8884912596336, -5096.667122443571, -19661.488492666304, -46517.02004873992, 20433.070711263503, -22704.879665956458, -26235.516516627853, -18962.907071460137, 0.098, 1.012, -0.044, 192.0, 0.0, 0.0, 0.0, 0.0, 0.0, 0.0, 0.0, 0.0, 0.0, 1.695681164027686E9, 0.0, 2023-09-25 17:32:44.027
246.0, -187500.02235174447, 24013.306082881223, -35875.55567926833, -35491.55270952615, 8116.5219088222875, 4105.9931046954525, -187500.02235174447, -89311.53587240409, 1901.5970112797036, -5098.187041066532, -19689.763449402268, -46520.97630750851, 20449.05220854905, -22726.49380284474, -26195.439838819486, -18979.939100735082, 0.098, 1.012, -0.044, 192.0, 0.0, 0.0, 0.0, 0.0, 0.0, 0.0, 0.0, 0.0, 0.0, 1.69568116402769E9, 0.0, 2023-09-25 17:32:44.027
